
      	X(nS)     	Ch1(mV)      


 1    	0.0000    	-70.002869  
 2    	0.0244    	-70.505981  
 3    	0.0489    	-70.434151  
 4    	0.0733    	-71.871643  
 5    	0.0977    	-71.152893  
 6    	0.1221    	-71.009163  
 7    	0.1466    	-71.584106  
 8    	0.1710    	-71.656006  
 9    	0.1954    	-71.009163  
 10   	0.2198    	-70.721626  
 11   	0.2443    	-71.512276  
 12   	0.2687    	-70.937263  
 13   	0.2931    	-70.865364  
 14   	0.3175    	-71.080994  
 15   	0.3420    	-71.152893  
 16   	0.3664    	-70.577881  
 17   	0.3908    	-70.649780  
 18   	0.4152    	-70.721626  
 19   	0.4397    	-70.505981  
 20   	0.4641    	-71.152893  
 21   	0.4885    	-69.284119  
 22   	0.5129    	-69.715401  
 23   	0.5374    	-69.715401  
 24   	0.5618    	-68.852905  
 25   	0.5862    	-69.931030  
 26   	0.6106    	-70.793526  
 27   	0.6351    	-70.649780  
 28   	0.6595    	-70.362244  
 29   	0.6839    	-70.793526  
 30   	0.7084    	-70.721626  
 31   	0.7328    	-70.649780  
 32   	0.7572    	-69.931030  
 33   	0.7816    	-70.505981  
 34   	0.8061    	-69.931030  
 35   	0.8305    	-70.362244  
 36   	0.8549    	-71.224739  
 37   	0.8793    	-70.865364  
 38   	0.9038    	-71.799744  
 39   	0.9282    	-71.368530  
 40   	0.9526    	-71.799744  
 41   	0.9770    	-71.727905  
 42   	1.0015    	-71.512276  
 43   	1.0259    	-71.727905  
 44   	1.0503    	-71.727905  
 45   	1.0747    	-71.512276  
 46   	1.0992    	-70.505981  
 47   	1.1236    	-70.002869  
 48   	1.1480    	-70.793526  
 49   	1.1724    	-70.434151  
 50   	1.1969    	-71.440376  
 51   	1.2213    	-70.793526  
 52   	1.2457    	-71.224739  
 53   	1.2702    	-71.296631  
 54   	1.2946    	-70.937263  
 55   	1.3190    	-70.865364  
 56   	1.3434    	-71.224739  
 57   	1.3679    	-71.512276  
 58   	1.3923    	-71.727905  
 59   	1.4167    	-72.015388  
 60   	1.4411    	-71.512276  
 61   	1.4656    	-71.080994  
 62   	1.4900    	-70.721626  
 63   	1.5144    	-69.859131  
 64   	1.5388    	-70.865364  
 65   	1.5633    	-71.080994  
 66   	1.5877    	-71.080994  
 67   	1.6121    	-71.224739  
 68   	1.6365    	-71.296631  
 69   	1.6610    	-72.015388  
 70   	1.6854    	-70.865364  
 71   	1.7098    	-71.584106  
 72   	1.7342    	-71.871643  
 73   	1.7587    	-71.440376  
 74   	1.7831    	-71.296631  
 75   	1.8075    	-71.296631  
 76   	1.8319    	-71.009163  
 77   	1.8564    	-71.656006  
 78   	1.8808    	-71.799744  
 79   	1.9052    	-70.793526  
 80   	1.9297    	-70.937263  
 81   	1.9541    	-70.074768  
 82   	1.9785    	-70.362244  
 83   	2.0029    	-70.146614  
 84   	2.0274    	-70.290413  
 85   	2.0518    	-71.368530  
 86   	2.0762    	-70.721626  
 87   	2.1006    	-71.080994  
 88   	2.1251    	-71.152893  
 89   	2.1495    	-70.505981  
 90   	2.1739    	-70.434151  
 91   	2.1983    	-69.212288  
 92   	2.2228    	-69.643501  
 93   	2.2472    	-69.859131  
 94   	2.2716    	-71.368530  
 95   	2.2960    	-71.009163  
 96   	2.3205    	-71.296631  
 97   	2.3449    	-71.152893  
 98   	2.3693    	-69.643501  
 99   	2.3937    	-70.074768  
 100  	2.4182    	-70.721626  
 101  	2.4426    	-71.512276  
 102  	2.4670    	-70.937263  
 103  	2.4915    	-70.865364  
 104  	2.5159    	-70.505981  
 105  	2.5403    	-70.865364  
 106  	2.5647    	-71.152893  
 107  	2.5892    	-71.368530  
 108  	2.6136    	-71.512276  
 109  	2.6380    	-70.865364  
 110  	2.6624    	-70.362244  
 111  	2.6869    	-70.002869  
 112  	2.7113    	-69.715401  
 113  	2.7357    	-69.499756  
 114  	2.7601    	-69.787231  
 115  	2.7846    	-70.218513  
 116  	2.8090    	-69.499756  
 117  	2.8334    	-70.290413  
 118  	2.8578    	-70.362244  
 119  	2.8823    	-70.074768  
 120  	2.9067    	-70.434151  
 121  	2.9311    	-71.512276  
 122  	2.9555    	-71.080994  
 123  	2.9800    	-70.793526  
 124  	3.0044    	-70.218513  
 125  	3.0288    	-70.002869  
 126  	3.0532    	-70.146614  
 127  	3.0777    	-70.146614  
 128  	3.1021    	-70.505981  
 129  	3.1265    	-71.296631  
 130  	3.1510    	-69.931030  
 131  	3.1754    	-69.212288  
 132  	3.1998    	-69.140388  
 133  	3.2242    	-69.499756  
 134  	3.2487    	-69.356018  
 135  	3.2731    	-69.499756  
 136  	3.2975    	-70.074768  
 137  	3.3219    	-70.649780  
 138  	3.3464    	-70.290413  
 139  	3.3708    	-70.937263  
 140  	3.3952    	-71.224739  
 141  	3.4196    	-71.152893  
 142  	3.4441    	-71.080994  
 143  	3.4685    	-70.937263  
 144  	3.4929    	-70.577881  
 145  	3.5173    	-70.649780  
 146  	3.5418    	-71.296631  
 147  	3.5662    	-70.505981  
 148  	3.5906    	-71.799744  
 149  	3.6150    	-71.224739  
 150  	3.6395    	-71.224739  
 151  	3.6639    	-70.793526  
 152  	3.6883    	-70.362244  
 153  	3.7128    	-69.931030  
 154  	3.7372    	-70.793526  
 155  	3.7616    	-70.577881  
 156  	3.7860    	-70.865364  
 157  	3.8105    	-70.793526  
 158  	3.8349    	-69.787231  
 159  	3.8593    	-70.505981  
 160  	3.8837    	-70.434151  
 161  	3.9082    	-70.290413  
 162  	3.9326    	-71.080994  
 163  	3.9570    	-71.080994  
 164  	3.9814    	-70.865364  
 165  	4.0059    	-71.296631  
 166  	4.0303    	-71.080994  
 167  	4.0547    	-70.793526  
 168  	4.0791    	-70.146614  
 169  	4.1036    	-71.009163  
 170  	4.1280    	-70.290413  
 171  	4.1524    	-70.505981  
 172  	4.1768    	-70.577881  
 173  	4.2013    	-69.356018  
 174  	4.2257    	-70.074768  
 175  	4.2501    	-69.859131  
 176  	4.2745    	-70.002869  
 177  	4.2990    	-70.505981  
 178  	4.3234    	-70.218513  
 179  	4.3478    	-69.859131  
 180  	4.3723    	-70.362244  
 181  	4.3967    	-70.434151  
 182  	4.4211    	-71.080994  
 183  	4.4455    	-70.290413  
 184  	4.4700    	-70.218513  
 185  	4.4944    	-71.080994  
 186  	4.5188    	-70.505981  
 187  	4.5432    	-69.643501  
 188  	4.5677    	-69.931030  
 189  	4.5921    	-70.505981  
 190  	4.6165    	-69.571655  
 191  	4.6409    	-69.715401  
 192  	4.6654    	-69.212288  
 193  	4.6898    	-69.499756  
 194  	4.7142    	-68.637276  
 195  	4.7386    	-68.349739  
 196  	4.7631    	-68.421638  
 197  	4.7875    	-67.056030  
 198  	4.8119    	-68.277893  
 199  	4.8363    	-68.493538  
 200  	4.8608    	-68.062256  
 201  	4.8852    	-68.062256  
 202  	4.9096    	-67.774780  
 203  	4.9340    	-66.984131  
 204  	4.9585    	-67.559143  
 205  	4.9829    	-66.552864  
 206  	5.0073    	-66.409119  
 207  	5.0318    	-65.618538  
 208  	5.0562    	-64.899780  
 209  	5.0806    	-64.540413  
 210  	5.1050    	-63.749763  
 211  	5.1295    	-62.527893  
 212  	5.1539    	-61.234131  
 213  	5.1783    	-60.587284  
 214  	5.2027    	-58.359135  
 215  	5.2272    	-56.705997  
 216  	5.2516    	-57.352909  
 217  	5.2760    	-56.921635  
 218  	5.3004    	-56.777897  
 219  	5.3249    	-57.137268  
 220  	5.3493    	-56.993534  
 221  	5.3737    	-57.065369  
 222  	5.3981    	-56.921635  
 223  	5.4226    	-57.281010  
 224  	5.4470    	-56.490360  
 225  	5.4714    	-53.615360  
 226  	5.4958    	-47.290405  
 227  	5.5203    	-34.999760  
 228  	5.5447    	-12.862244  
 229  	5.5691    	5.178345    
 230  	5.5936    	19.625246   
 231  	5.6180    	29.040895   
 232  	5.6424    	38.815918   
 233  	5.6668    	44.709599   
 234  	5.6913    	49.668949   
 235  	5.7157    	52.328369   
 236  	5.7401    	54.412724   
 237  	5.7645    	54.700199   
 238  	5.7890    	57.287724   
 239  	5.8134    	58.437748   
 240  	5.8378    	57.862797   
 241  	5.8622    	58.150272   
 242  	5.8867    	58.581547   
 243  	5.9111    	58.797119   
 244  	5.9355    	59.515869   
 245  	5.9599    	58.581547   
 246  	5.9844    	59.228397   
 247  	6.0088    	59.587769   
 248  	6.0332    	59.875248   
 249  	6.0576    	59.947147   
 250  	6.0821    	60.593994   
 251  	6.1065    	60.450195   
 252  	6.1309    	60.953373   
 253  	6.1553    	61.887699   
 254  	6.1798    	61.600220   
 255  	6.2042    	61.887699   
 256  	6.2286    	61.672123   
 257  	6.2531    	63.540894   
 258  	6.2775    	61.744022   
 259  	6.3019    	61.528320   
 260  	6.3263    	62.318970   
 261  	6.3508    	61.887699   
 262  	6.3752    	62.390869   
 263  	6.3996    	63.325195   
 264  	6.4240    	63.756474   
 265  	6.4485    	62.606449   
 266  	6.4729    	62.247070   
 267  	6.4973    	62.606449   
 268  	6.5217    	62.822147   
 269  	6.5462    	62.822147   
 270  	6.5706    	62.606449   
 271  	6.5950    	63.253426   
 272  	6.6194    	63.756474   
 273  	6.6439    	63.828373   
 274  	6.6683    	64.115845   
 275  	6.6927    	63.612797   
 276  	6.7171    	63.756474   
 277  	6.7416    	63.972172   
 278  	6.7660    	63.540894   
 279  	6.7904    	63.540894   
 280  	6.8149    	64.331543   
 281  	6.8393    	65.265869   
 282  	6.8637    	66.272095   
 283  	6.8881    	66.703377   
 284  	6.9126    	66.775276   
 285  	6.9370    	66.415894   
 286  	6.9614    	66.343994   
 287  	6.9858    	65.840828   
 288  	7.0103    	66.056526   
 289  	7.0347    	66.559578   
 290  	7.0591    	65.409668   
 291  	7.0835    	66.487793   
 292  	7.1080    	66.272095   
 293  	7.1324    	67.278320   
 294  	7.1568    	67.709602   
 295  	7.1812    	66.847176   
 296  	7.2057    	66.990845   
 297  	7.2301    	67.853401   
 298  	7.2545    	68.715820   
 299  	7.2789    	68.284668   
 300  	7.3034    	67.062744   
 301  	7.3278    	67.134644   
 302  	7.3522    	67.781502   
 303  	7.3766    	68.212769   
 304  	7.4011    	67.925301   
 305  	7.4255    	67.925301   
 306  	7.4499    	68.787720   
 307  	7.4744    	68.500252   
 308  	7.4988    	68.068970   
 309  	7.5232    	67.494019   
 310  	7.5476    	66.559578   
 311  	7.5721    	67.494019   
 312  	7.5965    	66.990845   
 313  	7.6209    	66.631477   
 314  	7.6453    	66.343994   
 315  	7.6698    	66.990845   
 316  	7.6942    	66.487793   
 317  	7.7186    	66.056526   
 318  	7.7430    	66.272095   
 319  	7.7675    	66.847176   
 320  	7.7919    	67.925301   
 321  	7.8163    	67.422119   
 322  	7.8407    	68.212769   
 323  	7.8652    	68.787720   
 324  	7.8896    	67.853401   
 325  	7.9140    	67.565918   
 326  	7.9384    	67.781502   
 327  	7.9629    	67.781502   
 328  	7.9873    	68.356453   
 329  	8.0117    	67.637703   
 330  	8.0362    	67.925301   
 331  	8.0606    	68.284668   
 332  	8.0850    	67.997070   
 333  	8.1094    	67.494019   
 334  	8.1339    	67.565918   
 335  	8.1583    	68.787720   
 336  	8.1827    	67.997070   
 337  	8.2071    	68.859619   
 338  	8.2316    	68.644051   
 339  	8.2560    	67.925301   
 340  	8.2804    	67.997070   
 341  	8.3048    	67.422119   
 342  	8.3293    	67.422119   
 343  	8.3537    	66.918945   
 344  	8.3781    	67.062744   
 345  	8.4025    	67.853401   
 346  	8.4270    	67.278320   
 347  	8.4514    	67.206543   
 348  	8.4758    	67.278320   
 349  	8.5002    	67.853401   
 350  	8.5247    	68.212769   
 351  	8.5491    	67.350220   
 352  	8.5735    	67.709602   
 353  	8.5979    	67.925301   
 354  	8.6224    	68.572151   
 355  	8.6468    	68.356453   
 356  	8.6712    	67.997070   
 357  	8.6957    	67.565918   
 358  	8.7201    	67.422119   
 359  	8.7445    	67.422119   
 360  	8.7689    	67.134644   
 361  	8.7934    	67.494019   
 362  	8.8178    	67.925301   
 363  	8.8422    	68.787720   
 364  	8.8666    	68.572151   
 365  	8.8911    	68.500252   
 366  	8.9155    	69.003418   
 367  	8.9399    	68.931519   
 368  	8.9643    	68.715820   
 369  	8.9888    	69.578377   
 370  	9.0132    	69.506477   
 371  	9.0376    	68.140869   
 372  	9.0620    	68.140869   
 373  	9.0865    	67.494019   
 374  	9.1109    	66.990845   
 375  	9.1353    	68.140869   
 376  	9.1597    	67.853401   
 377  	9.1842    	68.859619   
 378  	9.2086    	67.925301   
 379  	9.2330    	67.278320   
 380  	9.2574    	67.565918   
 381  	9.2819    	66.990845   
 382  	9.3063    	67.853401   
 383  	9.3307    	67.062744   
 384  	9.3552    	68.500252   
 385  	9.3796    	68.715820   
 386  	9.4040    	67.925301   
 387  	9.4284    	68.428352   
 388  	9.4529    	69.218994   
 389  	9.4773    	69.722176   
 390  	9.5017    	69.865845   
 391  	9.5261    	68.931519   
 392  	9.5506    	69.290894   
 393  	9.5750    	68.644051   
 394  	9.5994    	68.715820   
 395  	9.6238    	69.003418   
 396  	9.6483    	68.859619   
 397  	9.6727    	68.572151   
 398  	9.6971    	69.218994   
 399  	9.7215    	68.715820   
 400  	9.7460    	68.715820   
 401  	9.7704    	68.356453   
 402  	9.7948    	69.362793   
 403  	9.8192    	69.147095   
 404  	9.8437    	70.297127   
 405  	9.8681    	70.584602   
 406  	9.8925    	69.506477   
 407  	9.9170    	69.793945   
 408  	9.9414    	68.715820   
 409  	9.9658    	67.925301   
 410  	9.9902    	69.075195   
 411  	10.0147   	69.362793   
 412  	10.0391   	69.578377   
 413  	10.0635   	69.434578   
 414  	10.0879   	68.356453   
 415  	10.1124   	68.931519   
 416  	10.1368   	69.147095   
 417  	10.1612   	69.003418   
 418  	10.1856   	68.787720   
 419  	10.2101   	69.434578   
 420  	10.2345   	69.218994   
 421  	10.2589   	69.147095   
 422  	10.2833   	69.218994   
 423  	10.3078   	68.787720   
 424  	10.3322   	68.356453   
 425  	10.3566   	68.068970   
 426  	10.3810   	67.565918   
 427  	10.4055   	68.284668   
 428  	10.4299   	68.212769   
 429  	10.4543   	68.428352   
 430  	10.4787   	68.356453   
 431  	10.5032   	68.140869   
 432  	10.5276   	68.859619   
 433  	10.5520   	68.931519   
 434  	10.5765   	68.859619   
 435  	10.6009   	68.572151   
 436  	10.6253   	69.003418   
 437  	10.6497   	69.003418   
 438  	10.6742   	67.925301   
 439  	10.6986   	67.853401   
 440  	10.7230   	68.500252   
 441  	10.7474   	69.722176   
 442  	10.7719   	69.793945   
 443  	10.7963   	69.290894   
 444  	10.8207   	68.428352   
 445  	10.8451   	68.787720   
 446  	10.8696   	69.650276   
 447  	10.8940   	69.075195   
 448  	10.9184   	68.859619   
 449  	10.9428   	69.793945   
 450  	10.9673   	67.709602   
 451  	10.9917   	69.147095   
 452  	11.0161   	69.793945   
 453  	11.0405   	70.081543   
 454  	11.0650   	69.937744   
 455  	11.0894   	69.290894   
 456  	11.1138   	69.075195   
 457  	11.1383   	69.147095   
 458  	11.1627   	70.009644   
 459  	11.1871   	70.081543   
 460  	11.2115   	69.793945   
 461  	11.2360   	69.290894   
 462  	11.2604   	68.931519   
 463  	11.2848   	68.284668   
 464  	11.3092   	68.859619   
 465  	11.3337   	67.997070   
 466  	11.3581   	68.715820   
 467  	11.3825   	68.500252   
 468  	11.4069   	69.434578   
 469  	11.4314   	67.925301   
 470  	11.4558   	68.500252   
 471  	11.4802   	69.218994   
 472  	11.5046   	68.787720   
 473  	11.5291   	68.284668   
 474  	11.5535   	68.572151   
 475  	11.5779   	69.434578   
 476  	11.6023   	69.506477   
 477  	11.6268   	70.584602   
 478  	11.6512   	69.003418   
 479  	11.6756   	69.003418   
 480  	11.7000   	69.147095   
 481  	11.7245   	69.075195   
 482  	11.7489   	69.003418   
 483  	11.7733   	69.793945   
 484  	11.7978   	67.925301   
 485  	11.8222   	67.278320   
 486  	11.8466   	67.494019   
 487  	11.8710   	67.997070   
 488  	11.8955   	68.356453   
 489  	11.9199   	68.572151   
 490  	11.9443   	68.212769   
 491  	11.9687   	67.997070   
 492  	11.9932   	68.212769   
 493  	12.0176   	67.637703   
 494  	12.0420   	67.134644   
 495  	12.0664   	67.206543   
 496  	12.0909   	66.559578   
 497  	12.1153   	67.134644   
 498  	12.1397   	66.918945   
 499  	12.1641   	66.559578   
 500  	12.1886   	66.703377   
 501  	12.2130   	66.703377   
 502  	12.2374   	67.709602   
 503  	12.2618   	67.637703   
 504  	12.2863   	67.206543   
 505  	12.3107   	66.990845   
 506  	12.3351   	66.918945   
 507  	12.3596   	66.775276   
 508  	12.3840   	67.206543   
 509  	12.4084   	67.062744   
 510  	12.4328   	66.631477   
 511  	12.4573   	65.912727   
 512  	12.4817   	66.128418   
 513  	12.5061   	66.272095   
 514  	12.5305   	65.481445   
 515  	12.5550   	65.122070   
 516  	12.5794   	66.559578   
 517  	12.6038   	65.337769   
 518  	12.6282   	65.337769   
 519  	12.6527   	65.337769   
 520  	12.6771   	66.559578   
 521  	12.7015   	65.840828   
 522  	12.7259   	66.559578   
 523  	12.7504   	67.206543   
 524  	12.7748   	66.343994   
 525  	12.7992   	65.337769   
 526  	12.8236   	65.409668   
 527  	12.8481   	65.697151   
 528  	12.8725   	66.847176   
 529  	12.8969   	65.337769   
 530  	12.9213   	65.265869   
 531  	12.9458   	65.409668   
 532  	12.9702   	64.403320   
 533  	12.9946   	64.331543   
 534  	13.0191   	64.331543   
 535  	13.0435   	65.050301   
 536  	13.0679   	64.762703   
 537  	13.0923   	64.187744   
 538  	13.1168   	63.397095   
 539  	13.1412   	63.972172   
 540  	13.1656   	63.972172   
 541  	13.1900   	64.619019   
 542  	13.2145   	64.619019   
 543  	13.2389   	64.403320   
 544  	13.2633   	64.259644   
 545  	13.2877   	64.475220   
 546  	13.3122   	63.828373   
 547  	13.3366   	63.900272   
 548  	13.3610   	63.325195   
 549  	13.3854   	62.606449   
 550  	13.4099   	62.965824   
 551  	13.4343   	62.894047   
 552  	13.4587   	63.253426   
 553  	13.4831   	64.043945   
 554  	13.5076   	63.828373   
 555  	13.5320   	64.403320   
 556  	13.5564   	63.253426   
 557  	13.5808   	65.337769   
 558  	13.6053   	63.325195   
 559  	13.6297   	64.115845   
 560  	13.6541   	62.318970   
 561  	13.6786   	63.540894   
 562  	13.7030   	64.403320   
 563  	13.7274   	64.331543   
 564  	13.7518   	64.475220   
 565  	13.7763   	63.684574   
 566  	13.8007   	64.115845   
 567  	13.8251   	64.619019   
 568  	13.8495   	64.403320   
 569  	13.8740   	64.906502   
 570  	13.8984   	64.906502   
 571  	13.9228   	65.050301   
 572  	13.9472   	65.193970   
 573  	13.9717   	65.769051   
 574  	13.9961   	65.050301   
 575  	14.0205   	65.122070   
 576  	14.0449   	65.984627   
 577  	14.0694   	65.840828   
 578  	14.0938   	66.056526   
 579  	14.1182   	65.122070   
 580  	14.1426   	65.337769   
 581  	14.1671   	64.762703   
 582  	14.1915   	64.762703   
 583  	14.2159   	64.547119   
 584  	14.2404   	65.122070   
 585  	14.2648   	64.259644   
 586  	14.2892   	64.403320   
 587  	14.3136   	64.115845   
 588  	14.3381   	64.331543   
 589  	14.3625   	64.259644   
 590  	14.3869   	63.684574   
 591  	14.4113   	64.115845   
 592  	14.4358   	64.187744   
 593  	14.4602   	64.259644   
 594  	14.4846   	63.756474   
 595  	14.5090   	63.828373   
 596  	14.5335   	64.690918   
 597  	14.5579   	64.906502   
 598  	14.5823   	64.834602   
 599  	14.6067   	65.409668   
 600  	14.6312   	65.337769   
 601  	14.6556   	65.697151   
 602  	14.6800   	64.906502   
 603  	14.7044   	64.906502   
 604  	14.7289   	65.481445   
 605  	14.7533   	65.337769   
 606  	14.7777   	64.762703   
 607  	14.8021   	65.481445   
 608  	14.8266   	65.840828   
 609  	14.8510   	65.122070   
 610  	14.8754   	64.547119   
 611  	14.8999   	65.122070   
 612  	14.9243   	64.547119   
 613  	14.9487   	64.259644   
 614  	14.9731   	63.972172   
 615  	14.9976   	64.187744   
 616  	15.0220   	64.331543   
 617  	15.0464   	65.122070   
 618  	15.0708   	65.481445   
 619  	15.0953   	65.050301   
 620  	15.1197   	65.265869   
 621  	15.1441   	65.769051   
 622  	15.1685   	64.834602   
 623  	15.1930   	63.972172   
