
      	X(nS)     	Ch1(mV)      


 1    	0.0000    	-66.289246  
 2    	0.0244    	-66.217407  
 3    	0.0489    	-66.504883  
 4    	0.0733    	-67.511108  
 5    	0.0977    	-67.798645  
 6    	0.1221    	-69.020508  
 7    	0.1466    	-69.092407  
 8    	0.1710    	-69.092407  
 9    	0.1954    	-69.020508  
 10   	0.2198    	-68.373657  
 11   	0.2443    	-68.589233  
 12   	0.2687    	-68.517395  
 13   	0.2931    	-68.733032  
 14   	0.3175    	-69.523613  
 15   	0.3420    	-69.164238  
 16   	0.3664    	-68.661133  
 17   	0.3908    	-68.589233  
 18   	0.4152    	-68.445488  
 19   	0.4397    	-68.517395  
 20   	0.4641    	-68.517395  
 21   	0.4885    	-68.589233  
 22   	0.5129    	-68.804863  
 23   	0.5374    	-69.307976  
 24   	0.5618    	-68.804863  
 25   	0.5862    	-68.589233  
 26   	0.6106    	-68.086113  
 27   	0.6351    	-67.942375  
 28   	0.6595    	-67.295532  
 29   	0.6839    	-67.798645  
 30   	0.7084    	-68.229858  
 31   	0.7328    	-67.583000  
 32   	0.7572    	-67.726746  
 33   	0.7816    	-68.158020  
 34   	0.8061    	-68.301750  
 35   	0.8305    	-68.804863  
 36   	0.8549    	-69.164238  
 37   	0.8793    	-68.517395  
 38   	0.9038    	-68.373657  
 39   	0.9282    	-68.373657  
 40   	0.9526    	-68.445488  
 41   	0.9770    	-67.295532  
 42   	1.0015    	-68.086113  
 43   	1.0259    	-68.733032  
 44   	1.0503    	-68.301750  
 45   	1.0747    	-68.804863  
 46   	1.0992    	-69.020508  
 47   	1.1236    	-68.661133  
 48   	1.1480    	-68.733032  
 49   	1.1724    	-68.014282  
 50   	1.1969    	-68.014282  
 51   	1.2213    	-67.798645  
 52   	1.2457    	-67.295532  
 53   	1.2702    	-67.223625  
 54   	1.2946    	-67.870483  
 55   	1.3190    	-67.726746  
 56   	1.3434    	-67.511108  
 57   	1.3679    	-68.301750  
 58   	1.3923    	-68.661133  
 59   	1.4167    	-68.014282  
 60   	1.4411    	-68.661133  
 61   	1.4656    	-68.517395  
 62   	1.4900    	-67.870483  
 63   	1.5144    	-68.086113  
 64   	1.5388    	-67.798645  
 65   	1.5633    	-67.439270  
 66   	1.5877    	-67.583000  
 67   	1.6121    	-66.864250  
 68   	1.6365    	-67.439270  
 69   	1.6610    	-68.229858  
 70   	1.6854    	-68.229858  
 71   	1.7098    	-69.523613  
 72   	1.7342    	-69.020508  
 73   	1.7587    	-68.876770  
 74   	1.7831    	-67.942375  
 75   	1.8075    	-68.014282  
 76   	1.8319    	-68.804863  
 77   	1.8564    	-68.589233  
 78   	1.8808    	-68.661133  
 79   	1.9052    	-69.307976  
 80   	1.9297    	-69.379883  
 81   	1.9541    	-69.667351  
 82   	1.9785    	-68.589233  
 83   	2.0029    	-68.589233  
 84   	2.0274    	-67.583000  
 85   	2.0518    	-68.086113  
 86   	2.0762    	-68.229858  
 87   	2.1006    	-67.583000  
 88   	2.1251    	-67.942375  
 89   	2.1495    	-67.798645  
 90   	2.1739    	-68.661133  
 91   	2.1983    	-68.373657  
 92   	2.2228    	-67.654907  
 93   	2.2472    	-68.373657  
 94   	2.2716    	-68.086113  
 95   	2.2960    	-68.948608  
 96   	2.3205    	-68.948608  
 97   	2.3449    	-68.445488  
 98   	2.3693    	-68.517395  
 99   	2.3937    	-67.870483  
 100  	2.4182    	-68.445488  
 101  	2.4426    	-69.451775  
 102  	2.4670    	-69.092407  
 103  	2.4915    	-69.307976  
 104  	2.5159    	-68.158020  
 105  	2.5403    	-68.948608  
 106  	2.5647    	-67.870483  
 107  	2.5892    	-67.654907  
 108  	2.6136    	-68.301750  
 109  	2.6380    	-67.870483  
 110  	2.6624    	-68.445488  
 111  	2.6869    	-68.373657  
 112  	2.7113    	-67.798645  
 113  	2.7357    	-68.948608  
 114  	2.7601    	-68.086113  
 115  	2.7846    	-68.517395  
 116  	2.8090    	-67.583000  
 117  	2.8334    	-68.517395  
 118  	2.8578    	-68.589233  
 119  	2.8823    	-68.445488  
 120  	2.9067    	-68.589233  
 121  	2.9311    	-68.373657  
 122  	2.9555    	-67.726746  
 123  	2.9800    	-68.158020  
 124  	3.0044    	-68.158020  
 125  	3.0288    	-68.014282  
 126  	3.0532    	-69.092407  
 127  	3.0777    	-68.086113  
 128  	3.1021    	-66.648621  
 129  	3.1265    	-67.439270  
 130  	3.1510    	-67.726746  
 131  	3.1754    	-67.942375  
 132  	3.1998    	-67.654907  
 133  	3.2242    	-67.870483  
 134  	3.2487    	-67.439270  
 135  	3.2731    	-66.936157  
 136  	3.2975    	-66.936157  
 137  	3.3219    	-67.295532  
 138  	3.3464    	-67.583000  
 139  	3.3708    	-66.720512  
 140  	3.3952    	-67.654907  
 141  	3.4196    	-67.295532  
 142  	3.4441    	-66.720512  
 143  	3.4685    	-66.504883  
 144  	3.4929    	-66.073608  
 145  	3.5173    	-66.576782  
 146  	3.5418    	-67.007996  
 147  	3.5662    	-67.223625  
 148  	3.5906    	-67.367371  
 149  	3.6150    	-68.948608  
 150  	3.6395    	-68.158020  
 151  	3.6639    	-67.798645  
 152  	3.6883    	-68.301750  
 153  	3.7128    	-67.798645  
 154  	3.7372    	-68.014282  
 155  	3.7616    	-68.517395  
 156  	3.7860    	-68.589233  
 157  	3.8105    	-67.726746  
 158  	3.8349    	-67.654907  
 159  	3.8593    	-67.079887  
 160  	3.8837    	-67.151733  
 161  	3.9082    	-67.007996  
 162  	3.9326    	-66.576782  
 163  	3.9570    	-67.511108  
 164  	3.9814    	-67.079887  
 165  	4.0059    	-67.223625  
 166  	4.0303    	-67.870483  
 167  	4.0547    	-67.079887  
 168  	4.0791    	-66.864250  
 169  	4.1036    	-68.301750  
 170  	4.1280    	-68.086113  
 171  	4.1524    	-68.445488  
 172  	4.1768    	-68.589233  
 173  	4.2013    	-67.439270  
 174  	4.2257    	-67.870483  
 175  	4.2501    	-67.726746  
 176  	4.2745    	-67.583000  
 177  	4.2990    	-67.367371  
 178  	4.3234    	-67.223625  
 179  	4.3478    	-66.432983  
 180  	4.3723    	-66.720512  
 181  	4.3967    	-68.229858  
 182  	4.4211    	-67.295532  
 183  	4.4455    	-66.361137  
 184  	4.4700    	-66.001762  
 185  	4.4944    	-65.642387  
 186  	4.5188    	-65.498650  
 187  	4.5432    	-65.929871  
 188  	4.5677    	-65.426758  
 189  	4.5921    	-66.145508  
 190  	4.6165    	-66.217407  
 191  	4.6409    	-66.504883  
 192  	4.6654    	-66.576782  
 193  	4.6898    	-66.289246  
 194  	4.7142    	-66.217407  
 195  	4.7386    	-65.858025  
 196  	4.7631    	-65.786133  
 197  	4.7875    	-65.426758  
 198  	4.8119    	-65.283020  
 199  	4.8363    	-64.923645  
 200  	4.8608    	-64.420525  
 201  	4.8852    	-65.570496  
 202  	4.9096    	-64.851746  
 203  	4.9340    	-64.420525  
 204  	4.9585    	-63.989258  
 205  	4.9829    	-63.989258  
 206  	5.0073    	-63.414242  
 207  	5.0318    	-62.839230  
 208  	5.0562    	-63.198605  
 209  	5.0806    	-62.479858  
 210  	5.1050    	-62.120483  
 211  	5.1295    	-60.970516  
 212  	5.1539    	-58.239258  
 213  	5.1783    	-57.736145  
 214  	5.2027    	-56.011108  
 215  	5.2272    	-54.717403  
 216  	5.2516    	-54.429871  
 217  	5.2760    	-54.573605  
 218  	5.3004    	-54.789246  
 219  	5.3249    	-54.861141  
 220  	5.3493    	-54.573605  
 221  	5.3737    	-54.645508  
 222  	5.3981    	-54.573605  
 223  	5.4226    	-53.136105  
 224  	5.4470    	-52.776730  
 225  	5.4714    	-50.045528  
 226  	5.4958    	-42.570492  
 227  	5.5203    	-31.429869  
 228  	5.5447    	-10.083008  
 229  	5.5691    	9.898192    
 230  	5.5936    	21.685789   
 231  	5.6180    	33.401367   
 232  	5.6424    	40.804443   
 233  	5.6668    	47.273190   
 234  	5.6913    	51.513916   
 235  	5.7157    	53.526363   
 236  	5.7401    	56.473263   
 237  	5.7645    	57.623287   
 238  	5.7890    	58.701412   
 239  	5.8134    	59.204464   
 240  	5.8378    	59.923214   
 241  	5.8622    	59.276363   
 242  	5.8867    	60.713867   
 243  	5.9111    	60.426388   
 244  	5.9355    	61.145138   
 245  	5.9599    	61.145138   
 246  	5.9844    	61.791988   
 247  	6.0088    	62.223263   
 248  	6.0332    	62.366940   
 249  	6.0576    	62.366940   
 250  	6.0821    	62.079464   
 251  	6.1065    	61.935787   
 252  	6.1309    	62.942017   
 253  	6.1553    	64.379517   
 254  	6.1798    	64.092033   
 255  	6.2042    	64.882568   
 256  	6.2286    	64.379517   
 257  	6.2531    	63.876343   
 258  	6.2775    	63.876343   
 259  	6.3019    	64.595093   
 260  	6.3263    	64.882568   
 261  	6.3508    	64.379517   
 262  	6.3752    	63.588863   
 263  	6.3996    	64.307610   
 264  	6.4240    	64.451408   
 265  	6.4485    	64.235718   
 266  	6.4729    	63.732662   
 267  	6.4973    	65.170166   
 268  	6.5217    	64.810783   
 269  	6.5462    	65.098267   
 270  	6.5706    	65.098267   
 271  	6.5950    	65.888916   
 272  	6.6194    	65.601318   
 273  	6.6439    	65.817017   
 274  	6.6683    	66.535759   
 275  	6.6927    	65.529541   
 276  	6.7171    	66.463867   
 277  	6.7416    	65.960693   
 278  	6.7660    	66.320068   
 279  	6.7904    	67.326416   
 280  	6.8149    	66.823242   
 281  	6.8393    	65.745117   
 282  	6.8637    	67.182617   
 283  	6.8881    	67.973267   
 284  	6.9126    	67.829468   
 285  	6.9370    	68.835686   
 286  	6.9614    	67.470093   
 287  	6.9858    	69.698235   
 288  	7.0103    	69.842033   
 289  	7.0347    	69.626343   
 290  	7.0591    	69.554436   
 291  	7.0835    	70.201416   
 292  	7.1080    	69.266968   
 293  	7.1324    	68.692017   
 294  	7.1568    	68.692017   
 295  	7.1812    	68.692017   
 296  	7.2057    	69.698235   
 297  	7.2301    	68.404541   
 298  	7.2545    	68.763908   
 299  	7.2789    	68.763908   
 300  	7.3034    	69.338860   
 301  	7.3278    	69.195061   
 302  	7.3522    	70.057617   
 303  	7.3766    	69.266968   
 304  	7.4011    	70.488892   
 305  	7.4255    	69.913811   
 306  	7.4499    	68.763908   
 307  	7.4744    	68.907593   
 308  	7.4988    	69.338860   
 309  	7.5232    	69.913811   
 310  	7.5476    	70.704468   
 311  	7.5721    	70.129517   
 312  	7.5965    	70.057617   
 313  	7.6209    	71.207634   
 314  	7.6453    	70.632568   
 315  	7.6698    	69.698235   
 316  	7.6942    	69.985718   
 317  	7.7186    	70.129517   
 318  	7.7430    	70.273193   
 319  	7.7675    	70.488892   
 320  	7.7919    	69.770142   
 321  	7.8163    	69.698235   
 322  	7.8407    	70.416992   
 323  	7.8652    	70.704468   
 324  	7.8896    	70.057617   
 325  	7.9140    	70.201416   
 326  	7.9384    	69.913811   
 327  	7.9629    	70.273193   
 328  	7.9873    	70.704468   
 329  	8.0117    	71.998291   
 330  	8.0362    	72.717041   
 331  	8.0606    	73.076416   
 332  	8.0850    	72.070068   
 333  	8.1094    	71.998291   
 334  	8.1339    	71.063835   
 335  	8.1583    	70.416992   
 336  	8.1827    	70.920166   
 337  	8.2071    	71.279541   
 338  	8.2316    	70.848259   
 339  	8.2560    	70.848259   
 340  	8.2804    	69.913811   
 341  	8.3048    	69.698235   
 342  	8.3293    	69.051392   
 343  	8.3537    	68.763908   
 344  	8.3781    	69.410767   
 345  	8.4025    	69.913811   
 346  	8.4270    	69.123283   
 347  	8.4514    	69.913811   
 348  	8.4758    	70.057617   
 349  	8.5002    	69.266968   
 350  	8.5247    	69.410767   
 351  	8.5491    	70.057617   
 352  	8.5735    	70.057617   
 353  	8.5979    	69.985718   
 354  	8.6224    	70.201416   
 355  	8.6468    	69.195061   
 356  	8.6712    	70.129517   
 357  	8.6957    	69.626343   
 358  	8.7201    	69.482658   
 359  	8.7445    	69.985718   
 360  	8.7689    	70.920166   
 361  	8.7934    	71.063835   
 362  	8.8178    	70.848259   
 363  	8.8422    	69.698235   
 364  	8.8666    	70.129517   
 365  	8.8911    	70.057617   
 366  	8.9155    	70.704468   
 367  	8.9399    	71.207634   
 368  	8.9643    	70.920166   
 369  	8.9888    	72.141960   
 370  	9.0132    	71.423210   
 371  	9.0376    	71.135742   
 372  	9.0620    	71.638916   
 373  	9.0865    	70.776367   
 374  	9.1109    	70.416992   
 375  	9.1353    	70.848259   
 376  	9.1597    	70.920166   
 377  	9.1842    	70.560791   
 378  	9.2086    	70.632568   
 379  	9.2330    	71.423210   
 380  	9.2574    	71.495117   
 381  	9.2819    	70.920166   
 382  	9.3063    	71.854492   
 383  	9.3307    	71.423210   
 384  	9.3552    	71.207634   
 385  	9.3796    	70.991943   
 386  	9.4040    	71.854492   
 387  	9.4284    	72.285759   
 388  	9.4529    	71.782585   
 389  	9.4773    	71.926384   
 390  	9.5017    	71.063835   
 391  	9.5261    	70.776367   
 392  	9.5506    	71.567009   
 393  	9.5750    	72.213867   
 394  	9.5994    	71.854492   
 395  	9.6238    	73.220093   
 396  	9.6483    	71.926384   
 397  	9.6727    	71.710693   
 398  	9.6971    	71.495117   
 399  	9.7215    	71.279541   
 400  	9.7460    	72.213867   
 401  	9.7704    	71.495117   
 402  	9.7948    	70.920166   
 403  	9.8192    	70.488892   
 404  	9.8437    	70.560791   
 405  	9.8681    	70.560791   
 406  	9.8925    	70.632568   
 407  	9.9170    	70.704468   
 408  	9.9414    	70.991943   
 409  	9.9658    	71.638916   
 410  	9.9902    	71.710693   
 411  	10.0147   	71.854492   
 412  	10.0391   	72.573242   
 413  	10.0635   	70.560791   
 414  	10.0879   	71.351318   
 415  	10.1124   	71.351318   
 416  	10.1368   	70.991943   
 417  	10.1612   	70.201416   
 418  	10.1856   	69.698235   
 419  	10.2101   	70.632568   
 420  	10.2345   	70.848259   
 421  	10.2589   	70.920166   
 422  	10.2833   	70.920166   
 423  	10.3078   	70.488892   
 424  	10.3322   	71.495117   
 425  	10.3566   	71.207634   
 426  	10.3810   	70.345093   
 427  	10.4055   	70.488892   
 428  	10.4299   	69.842033   
 429  	10.4543   	70.704468   
 430  	10.4787   	71.279541   
 431  	10.5032   	73.148193   
 432  	10.5276   	72.717041   
 433  	10.5520   	71.495117   
 434  	10.5765   	72.070068   
 435  	10.6009   	71.135742   
 436  	10.6253   	71.207634   
 437  	10.6497   	70.776367   
 438  	10.6742   	70.776367   
 439  	10.6986   	71.063835   
 440  	10.7230   	71.423210   
 441  	10.7474   	71.423210   
 442  	10.7719   	71.423210   
 443  	10.7963   	70.776367   
 444  	10.8207   	70.920166   
 445  	10.8451   	70.560791   
 446  	10.8696   	71.351318   
 447  	10.8940   	70.632568   
 448  	10.9184   	70.991943   
 449  	10.9428   	71.351318   
 450  	10.9673   	70.991943   
 451  	10.9917   	72.357666   
 452  	11.0161   	71.710693   
 453  	11.0405   	71.351318   
 454  	11.0650   	71.279541   
 455  	11.0894   	71.926384   
 456  	11.1138   	71.279541   
 457  	11.1383   	71.926384   
 458  	11.1627   	71.854492   
 459  	11.1871   	70.848259   
 460  	11.2115   	69.554436   
 461  	11.2360   	69.698235   
 462  	11.2604   	70.273193   
 463  	11.2848   	69.842033   
 464  	11.3092   	69.410767   
 465  	11.3337   	69.913811   
 466  	11.3581   	70.488892   
 467  	11.3825   	70.920166   
 468  	11.4069   	72.429443   
 469  	11.4314   	70.920166   
 470  	11.4558   	72.213867   
 471  	11.4802   	71.135742   
 472  	11.5046   	70.488892   
 473  	11.5291   	71.638916   
 474  	11.5535   	70.416992   
 475  	11.5779   	70.057617   
 476  	11.6023   	69.985718   
 477  	11.6268   	70.488892   
 478  	11.6512   	70.848259   
 479  	11.6756   	72.429443   
 480  	11.7000   	72.788818   
 481  	11.7245   	72.141960   
 482  	11.7489   	71.926384   
 483  	11.7733   	71.207634   
 484  	11.7978   	70.991943   
 485  	11.8222   	70.776367   
 486  	11.8466   	70.776367   
 487  	11.8710   	70.273193   
 488  	11.8955   	71.135742   
 489  	11.9199   	70.991943   
 490  	11.9443   	71.279541   
 491  	11.9687   	71.638916   
 492  	11.9932   	71.423210   
 493  	12.0176   	71.279541   
 494  	12.0420   	69.770142   
 495  	12.0664   	70.991943   
 496  	12.0909   	70.488892   
 497  	12.1153   	70.201416   
 498  	12.1397   	69.482658   
 499  	12.1641   	68.979485   
 500  	12.1886   	69.698235   
 501  	12.2130   	70.632568   
 502  	12.2374   	70.129517   
 503  	12.2618   	69.410767   
 504  	12.2863   	69.482658   
 505  	12.3107   	69.051392   
 506  	12.3351   	69.842033   
 507  	12.3596   	69.770142   
 508  	12.3840   	69.842033   
 509  	12.4084   	69.913811   
 510  	12.4328   	68.907593   
 511  	12.4573   	69.410767   
 512  	12.4817   	68.763908   
 513  	12.5061   	67.829468   
 514  	12.5305   	67.829468   
 515  	12.5550   	67.901367   
 516  	12.5794   	67.398193   
 517  	12.6038   	67.470093   
 518  	12.6282   	67.757568   
 519  	12.6527   	67.398193   
 520  	12.6771   	68.260742   
 521  	12.7015   	68.116943   
 522  	12.7259   	68.116943   
 523  	12.7504   	68.548218   
 524  	12.7748   	67.901367   
 525  	12.7992   	67.182617   
 526  	12.8236   	68.116943   
 527  	12.8481   	68.763908   
 528  	12.8725   	67.182617   
 529  	12.8969   	67.182617   
 530  	12.9213   	67.757568   
 531  	12.9458   	67.038818   
 532  	12.9702   	67.757568   
 533  	12.9946   	67.254509   
 534  	13.0191   	68.045166   
 535  	13.0435   	67.613892   
 536  	13.0679   	66.607666   
 537  	13.0923   	66.320068   
 538  	13.1168   	66.248291   
 539  	13.1412   	65.745117   
 540  	13.1656   	66.104492   
 541  	13.1900   	66.535759   
 542  	13.2145   	66.967041   
 543  	13.2389   	66.895134   
 544  	13.2633   	66.679443   
 545  	13.2877   	66.967041   
 546  	13.3122   	67.470093   
 547  	13.3366   	67.829468   
 548  	13.3610   	66.463867   
 549  	13.3854   	66.967041   
 550  	13.4099   	66.967041   
 551  	13.4343   	66.176384   
 552  	13.4587   	66.176384   
 553  	13.4831   	66.679443   
 554  	13.5076   	67.182617   
 555  	13.5320   	67.326416   
 556  	13.5564   	65.817017   
 557  	13.5808   	66.104492   
 558  	13.6053   	66.823242   
 559  	13.6297   	67.182617   
 560  	13.6541   	67.110710   
 561  	13.6786   	67.685791   
 562  	13.7030   	67.757568   
 563  	13.7274   	68.188843   
 564  	13.7518   	68.763908   
 565  	13.7763   	67.110710   
 566  	13.8007   	67.973267   
 567  	13.8251   	67.254509   
 568  	13.8495   	66.751335   
 569  	13.8740   	68.476311   
 570  	13.8984   	68.404541   
 571  	13.9228   	67.757568   
 572  	13.9472   	68.620110   
 573  	13.9717   	68.907593   
 574  	13.9961   	67.541992   
 575  	14.0205   	67.685791   
 576  	14.0449   	67.470093   
 577  	14.0694   	67.829468   
 578  	14.0938   	67.829468   
 579  	14.1182   	68.260742   
 580  	14.1426   	68.332642   
 581  	14.1671   	67.901367   
 582  	14.1915   	67.398193   
 583  	14.2159   	67.613892   
 584  	14.2404   	67.254509   
 585  	14.2648   	68.116943   
 586  	14.2892   	68.763908   
 587  	14.3136   	68.404541   
 588  	14.3381   	69.266968   
 589  	14.3625   	66.967041   
 590  	14.3869   	67.541992   
 591  	14.4113   	67.254509   
 592  	14.4358   	67.110710   
 593  	14.4602   	67.110710   
 594  	14.4846   	66.967041   
 595  	14.5090   	67.254509   
 596  	14.5335   	66.248291   
 597  	14.5579   	67.110710   
 598  	14.5823   	68.332642   
 599  	14.6067   	68.404541   
 600  	14.6312   	68.045166   
 601  	14.6556   	68.332642   
 602  	14.6800   	68.476311   
 603  	14.7044   	69.123283   
 604  	14.7289   	67.757568   
 605  	14.7533   	67.398193   
 606  	14.7777   	68.045166   
 607  	14.8021   	68.548218   
 608  	14.8266   	68.763908   
 609  	14.8510   	67.973267   
 610  	14.8754   	68.476311   
 611  	14.8999   	67.613892   
 612  	14.9243   	67.326416   
 613  	14.9487   	67.326416   
 614  	14.9731   	67.685791   
 615  	14.9976   	67.038818   
 616  	15.0220   	67.541992   
 617  	15.0464   	67.901367   
 618  	15.0708   	67.829468   
 619  	15.0953   	68.260742   
 620  	15.1197   	68.332642   
 621  	15.1441   	67.685791   
 622  	15.1685   	67.757568   
 623  	15.1930   	67.326416   
