
      	X(nS)     	Ch1(mV)      


 1    	0.0000    	-81.355164  
 2    	0.0244    	-82.002014  
 3    	0.0489    	-82.002014  
 4    	0.0733    	-83.223877  
 5    	0.0977    	-82.361389  
 6    	0.1221    	-82.433289  
 7    	0.1466    	-82.720764  
 8    	0.1710    	-82.289551  
 9    	0.1954    	-82.648926  
 10   	0.2198    	-81.570801  
 11   	0.2443    	-81.714539  
 12   	0.2687    	-82.073914  
 13   	0.2931    	-82.289551  
 14   	0.3175    	-83.080139  
 15   	0.3420    	-82.864502  
 16   	0.3664    	-82.217651  
 17   	0.3908    	-82.002014  
 18   	0.4152    	-82.289551  
 19   	0.4397    	-82.289551  
 20   	0.4641    	-82.361389  
 21   	0.4885    	-81.714539  
 22   	0.5129    	-82.289551  
 23   	0.5374    	-82.361389  
 24   	0.5618    	-82.073914  
 25   	0.5862    	-82.433289  
 26   	0.6106    	-82.720764  
 27   	0.6351    	-83.080139  
 28   	0.6595    	-83.798889  
 29   	0.6839    	-83.367676  
 30   	0.7084    	-83.295776  
 31   	0.7328    	-83.152039  
 32   	0.7572    	-83.511414  
 33   	0.7816    	-83.727051  
 34   	0.8061    	-82.792664  
 35   	0.8305    	-81.858276  
 36   	0.8549    	-82.936401  
 37   	0.8793    	-82.648926  
 38   	0.9038    	-82.720764  
 39   	0.9282    	-82.577026  
 40   	0.9526    	-83.367676  
 41   	0.9770    	-82.864502  
 42   	1.0015    	-82.720764  
 43   	1.0259    	-82.720764  
 44   	1.0503    	-83.008301  
 45   	1.0747    	-82.505127  
 46   	1.0992    	-83.295776  
 47   	1.1236    	-82.720764  
 48   	1.1480    	-82.648926  
 49   	1.1724    	-83.583252  
 50   	1.1969    	-83.583252  
 51   	1.2213    	-81.714539  
 52   	1.2457    	-82.577026  
 53   	1.2702    	-82.289551  
 54   	1.2946    	-82.217651  
 55   	1.3190    	-82.792664  
 56   	1.3434    	-81.786377  
 57   	1.3679    	-83.080139  
 58   	1.3923    	-82.361389  
 59   	1.4167    	-83.367676  
 60   	1.4411    	-83.080139  
 61   	1.4656    	-82.648926  
 62   	1.4900    	-83.295776  
 63   	1.5144    	-83.152039  
 64   	1.5388    	-83.367676  
 65   	1.5633    	-82.792664  
 66   	1.5877    	-82.577026  
 67   	1.6121    	-83.583252  
 68   	1.6365    	-82.864502  
 69   	1.6610    	-83.295776  
 70   	1.6854    	-84.445801  
 71   	1.7098    	-84.230164  
 72   	1.7342    	-83.583252  
 73   	1.7587    	-83.080139  
 74   	1.7831    	-82.720764  
 75   	1.8075    	-83.655151  
 76   	1.8319    	-82.936401  
 77   	1.8564    	-82.864502  
 78   	1.8808    	-82.936401  
 79   	1.9052    	-82.433289  
 80   	1.9297    	-82.577026  
 81   	1.9541    	-81.858276  
 82   	1.9785    	-82.289551  
 83   	2.0029    	-83.511414  
 84   	2.0274    	-83.942627  
 85   	2.0518    	-83.367676  
 86   	2.0762    	-83.295776  
 87   	2.1006    	-83.295776  
 88   	2.1251    	-83.583252  
 89   	2.1495    	-83.439514  
 90   	2.1739    	-82.720764  
 91   	2.1983    	-82.289551  
 92   	2.2228    	-82.720764  
 93   	2.2472    	-82.073914  
 94   	2.2716    	-82.648926  
 95   	2.2960    	-81.067627  
 96   	2.3205    	-81.498901  
 97   	2.3449    	-80.636414  
 98   	2.3693    	-81.498901  
 99   	2.3937    	-81.355164  
 100  	2.4182    	-81.570801  
 101  	2.4426    	-81.930176  
 102  	2.4670    	-82.648926  
 103  	2.4915    	-82.145752  
 104  	2.5159    	-82.720764  
 105  	2.5403    	-81.642639  
 106  	2.5647    	-81.858276  
 107  	2.5892    	-82.217651  
 108  	2.6136    	-80.564514  
 109  	2.6380    	-80.852051  
 110  	2.6624    	-80.564514  
 111  	2.6869    	-80.995789  
 112  	2.7113    	-80.923889  
 113  	2.7357    	-81.642639  
 114  	2.7601    	-82.289551  
 115  	2.7846    	-83.080139  
 116  	2.8090    	-82.361389  
 117  	2.8334    	-83.008301  
 118  	2.8578    	-83.367676  
 119  	2.8823    	-83.008301  
 120  	2.9067    	-82.361389  
 121  	2.9311    	-82.505127  
 122  	2.9555    	-82.073914  
 123  	2.9800    	-81.930176  
 124  	3.0044    	-81.858276  
 125  	3.0288    	-82.361389  
 126  	3.0532    	-83.152039  
 127  	3.0777    	-82.433289  
 128  	3.1021    	-83.080139  
 129  	3.1265    	-81.858276  
 130  	3.1510    	-82.648926  
 131  	3.1754    	-82.289551  
 132  	3.1998    	-83.295776  
 133  	3.2242    	-83.295776  
 134  	3.2487    	-82.720764  
 135  	3.2731    	-82.145752  
 136  	3.2975    	-83.008301  
 137  	3.3219    	-82.217651  
 138  	3.3464    	-82.073914  
 139  	3.3708    	-82.002014  
 140  	3.3952    	-82.361389  
 141  	3.4196    	-82.433289  
 142  	3.4441    	-82.720764  
 143  	3.4685    	-81.211426  
 144  	3.4929    	-82.002014  
 145  	3.5173    	-82.002014  
 146  	3.5418    	-81.786377  
 147  	3.5662    	-81.786377  
 148  	3.5906    	-81.714539  
 149  	3.6150    	-82.002014  
 150  	3.6395    	-82.073914  
 151  	3.6639    	-81.642639  
 152  	3.6883    	-81.498901  
 153  	3.7128    	-81.427002  
 154  	3.7372    	-81.930176  
 155  	3.7616    	-81.067627  
 156  	3.7860    	-82.505127  
 157  	3.8105    	-82.217651  
 158  	3.8349    	-81.714539  
 159  	3.8593    	-82.217651  
 160  	3.8837    	-82.002014  
 161  	3.9082    	-81.355164  
 162  	3.9326    	-81.139526  
 163  	3.9570    	-81.355164  
 164  	3.9814    	-81.139526  
 165  	4.0059    	-81.642639  
 166  	4.0303    	-82.002014  
 167  	4.0547    	-81.642639  
 168  	4.0791    	-81.642639  
 169  	4.1036    	-82.002014  
 170  	4.1280    	-81.786377  
 171  	4.1524    	-81.570801  
 172  	4.1768    	-81.427002  
 173  	4.2013    	-81.858276  
 174  	4.2257    	-81.283264  
 175  	4.2501    	-81.211426  
 176  	4.2745    	-80.923889  
 177  	4.2990    	-80.420776  
 178  	4.3234    	-80.205139  
 179  	4.3478    	-80.348877  
 180  	4.3723    	-80.133301  
 181  	4.3967    	-80.636414  
 182  	4.4211    	-80.636414  
 183  	4.4455    	-81.498901  
 184  	4.4700    	-81.139526  
 185  	4.4944    	-81.930176  
 186  	4.5188    	-80.636414  
 187  	4.5432    	-80.923889  
 188  	4.5677    	-81.139526  
 189  	4.5921    	-81.714539  
 190  	4.6165    	-81.570801  
 191  	4.6409    	-81.498901  
 192  	4.6654    	-81.355164  
 193  	4.6898    	-80.708252  
 194  	4.7142    	-80.492676  
 195  	4.7386    	-80.205139  
 196  	4.7631    	-80.420776  
 197  	4.7875    	-79.630127  
 198  	4.8119    	-80.277039  
 199  	4.8363    	-80.133301  
 200  	4.8608    	-79.630127  
 201  	4.8852    	-79.270752  
 202  	4.9096    	-78.264526  
 203  	4.9340    	-78.839539  
 204  	4.9585    	-78.192627  
 205  	4.9829    	-78.480164  
 206  	5.0073    	-78.911377  
 207  	5.0318    	-77.545776  
 208  	5.0562    	-77.689514  
 209  	5.0806    	-77.186401  
 210  	5.1050    	-74.886414  
 211  	5.1295    	-73.017639  
 212  	5.1539    	-71.652039  
 213  	5.1783    	-71.436401  
 214  	5.2027    	-69.639526  
 215  	5.2272    	-71.005127  
 216  	5.2516    	-70.573914  
 217  	5.2760    	-70.070801  
 218  	5.3004    	-69.855164  
 219  	5.3249    	-69.927002  
 220  	5.3493    	-68.920776  
 221  	5.3737    	-68.705139  
 222  	5.3981    	-68.417664  
 223  	5.4226    	-68.202026  
 224  	5.4470    	-68.489502  
 225  	5.4714    	-66.764526  
 226  	5.4958    	-61.517639  
 227  	5.5203    	-51.095764  
 228  	5.5447    	-29.173891  
 229  	5.5691    	-9.839539   
 230  	5.5936    	5.182373    
 231  	5.6180    	16.682373   
 232  	5.6424    	25.522949   
 233  	5.6668    	32.997925   
 234  	5.6913    	36.160522   
 235  	5.7157    	39.466675   
 236  	5.7401    	41.622925   
 237  	5.7645    	44.138550   
 238  	5.7890    	45.576050   
 239  	5.8134    	44.929199   
 240  	5.8378    	45.072998   
 241  	5.8622    	44.569824   
 242  	5.8867    	45.647949   
 243  	5.9111    	45.647949   
 244  	5.9355    	46.079224   
 245  	5.9599    	46.869873   
 246  	5.9844    	47.229248   
 247  	6.0088    	47.588623   
 248  	6.0332    	48.379272   
 249  	6.0576    	49.529175   
 250  	6.0821    	48.882324   
 251  	6.1065    	49.672974   
 252  	6.1309    	50.176147   
 253  	6.1553    	50.104248   
 254  	6.1798    	51.326050   
 255  	6.2042    	51.685425   
 256  	6.2286    	51.397949   
 257  	6.2531    	50.894897   
 258  	6.2775    	50.894897   
 259  	6.3019    	51.038574   
 260  	6.3263    	51.757324   
 261  	6.3508    	51.757324   
 262  	6.3752    	52.044800   
 263  	6.3996    	51.973022   
 264  	6.4240    	51.901123   
 265  	6.4485    	51.469849   
 266  	6.4729    	52.044800   
 267  	6.4973    	52.476074   
 268  	6.5217    	52.260498   
 269  	6.5462    	51.326050   
 270  	6.5706    	52.476074   
 271  	6.5950    	52.260498   
 272  	6.6194    	53.194824   
 273  	6.6439    	51.973022   
 274  	6.6683    	53.266724   
 275  	6.6927    	53.410522   
 276  	6.7171    	52.476074   
 277  	6.7416    	53.554199   
 278  	6.7660    	52.979248   
 279  	6.7904    	53.266724   
 280  	6.8149    	53.338623   
 281  	6.8393    	52.763550   
 282  	6.8637    	53.338623   
 283  	6.8881    	53.122925   
 284  	6.9126    	53.482300   
 285  	6.9370    	54.416748   
 286  	6.9614    	54.416748   
 287  	6.9858    	54.991699   
 288  	7.0103    	54.991699   
 289  	7.0347    	54.848026   
 290  	7.0591    	54.704224   
 291  	7.0835    	53.913574   
 292  	7.1080    	54.057373   
 293  	7.1324    	53.841675   
 294  	7.1568    	55.063599   
 295  	7.1812    	54.632320   
 296  	7.2057    	54.272949   
 297  	7.2301    	55.279171   
 298  	7.2545    	55.494877   
 299  	7.2789    	55.279171   
 300  	7.3034    	56.069824   
 301  	7.3278    	55.135498   
 302  	7.3522    	56.213623   
 303  	7.3766    	56.644897   
 304  	7.4011    	56.501099   
 305  	7.4255    	56.716679   
 306  	7.4499    	57.291752   
 307  	7.4744    	57.291752   
 308  	7.4988    	56.357300   
 309  	7.5232    	56.932373   
 310  	7.5476    	56.141720   
 311  	7.5721    	55.638550   
 312  	7.5965    	54.991699   
 313  	7.6209    	54.776123   
 314  	7.6453    	54.776123   
 315  	7.6698    	54.991699   
 316  	7.6942    	54.776123   
 317  	7.7186    	55.207394   
 318  	7.7430    	56.069824   
 319  	7.7675    	55.997925   
 320  	7.7919    	56.572998   
 321  	7.8163    	55.782352   
 322  	7.8407    	55.638550   
 323  	7.8652    	56.357300   
 324  	7.8896    	57.219849   
 325  	7.9140    	57.147949   
 326  	7.9384    	56.716679   
 327  	7.9629    	57.076046   
 328  	7.9873    	56.932373   
 329  	8.0117    	57.004276   
 330  	8.0362    	56.788570   
 331  	8.0606    	56.357300   
 332  	8.0850    	55.638550   
 333  	8.1094    	56.285522   
 334  	8.1339    	56.141720   
 335  	8.1583    	55.638550   
 336  	8.1827    	55.638550   
 337  	8.2071    	55.422974   
 338  	8.2316    	54.201050   
 339  	8.2560    	55.279171   
 340  	8.2804    	55.782352   
 341  	8.3048    	54.848026   
 342  	8.3293    	54.776123   
 343  	8.3537    	54.201050   
 344  	8.3781    	54.272949   
 345  	8.4025    	54.057373   
 346  	8.4270    	55.351074   
 347  	8.4514    	56.285522   
 348  	8.4758    	54.632320   
 349  	8.5002    	54.416748   
 350  	8.5247    	54.919804   
 351  	8.5491    	53.985474   
 352  	8.5735    	54.632320   
 353  	8.5979    	54.848026   
 354  	8.6224    	55.063599   
 355  	8.6468    	55.422974   
 356  	8.6712    	54.632320   
 357  	8.6957    	55.135498   
 358  	8.7201    	55.279171   
 359  	8.7445    	55.566769   
 360  	8.7689    	55.997925   
 361  	8.7934    	55.854244   
 362  	8.8178    	56.932373   
 363  	8.8422    	55.279171   
 364  	8.8666    	56.285522   
 365  	8.8911    	56.860474   
 366  	8.9155    	56.429203   
 367  	8.9399    	57.004276   
 368  	8.9643    	56.429203   
 369  	8.9888    	56.213623   
 370  	9.0132    	56.285522   
 371  	9.0376    	56.429203   
 372  	9.0620    	56.213623   
 373  	9.0865    	56.644897   
 374  	9.1109    	55.926147   
 375  	9.1353    	55.279171   
 376  	9.1597    	55.710449   
 377  	9.1842    	55.207394   
 378  	9.2086    	55.710449   
 379  	9.2330    	55.566769   
 380  	9.2574    	55.997925   
 381  	9.2819    	55.854244   
 382  	9.3063    	56.069824   
 383  	9.3307    	56.429203   
 384  	9.3552    	55.638550   
 385  	9.3796    	55.135498   
 386  	9.4040    	55.566769   
 387  	9.4284    	55.063599   
 388  	9.4529    	55.351074   
 389  	9.4773    	55.351074   
 390  	9.5017    	55.710449   
 391  	9.5261    	56.357300   
 392  	9.5506    	56.788570   
 393  	9.5750    	57.579224   
 394  	9.5994    	57.723022   
 395  	9.6238    	57.363644   
 396  	9.6483    	57.723022   
 397  	9.6727    	56.285522   
 398  	9.6971    	56.716679   
 399  	9.7215    	57.219849   
 400  	9.7460    	57.076046   
 401  	9.7704    	56.357300   
 402  	9.7948    	57.004276   
 403  	9.8192    	56.788570   
 404  	9.8437    	56.501099   
 405  	9.8681    	56.932373   
 406  	9.8925    	56.285522   
 407  	9.9170    	56.501099   
 408  	9.9414    	56.357300   
 409  	9.9658    	55.997925   
 410  	9.9902    	55.566769   
 411  	10.0147   	56.501099   
 412  	10.0391   	57.219849   
 413  	10.0635   	56.501099   
 414  	10.0879   	56.357300   
 415  	10.1124   	57.004276   
 416  	10.1368   	57.004276   
 417  	10.1612   	56.501099   
 418  	10.1856   	57.076046   
 419  	10.2101   	57.363644   
 420  	10.2345   	56.357300   
 421  	10.2589   	57.147949   
 422  	10.2833   	56.572998   
 423  	10.3078   	56.644897   
 424  	10.3322   	56.572998   
 425  	10.3566   	57.291752   
 426  	10.3810   	56.716679   
 427  	10.4055   	56.932373   
 428  	10.4299   	57.219849   
 429  	10.4543   	57.291752   
 430  	10.4787   	57.363644   
 431  	10.5032   	56.860474   
 432  	10.5276   	56.141720   
 433  	10.5520   	55.782352   
 434  	10.5765   	56.429203   
 435  	10.6009   	56.716679   
 436  	10.6253   	56.141720   
 437  	10.6497   	56.213623   
 438  	10.6742   	56.429203   
 439  	10.6986   	56.501099   
 440  	10.7230   	56.069824   
 441  	10.7474   	56.357300   
 442  	10.7719   	55.279171   
 443  	10.7963   	55.997925   
 444  	10.8207   	55.710449   
 445  	10.8451   	56.429203   
 446  	10.8696   	56.644897   
 447  	10.8940   	55.782352   
 448  	10.9184   	55.926147   
 449  	10.9428   	56.644897   
 450  	10.9673   	56.644897   
 451  	10.9917   	56.141720   
 452  	11.0161   	56.213623   
 453  	11.0405   	56.716679   
 454  	11.0650   	57.507324   
 455  	11.0894   	56.285522   
 456  	11.1138   	56.572998   
 457  	11.1383   	56.501099   
 458  	11.1627   	56.860474   
 459  	11.1871   	56.932373   
 460  	11.2115   	56.860474   
 461  	11.2360   	56.141720   
 462  	11.2604   	56.285522   
 463  	11.2848   	56.141720   
 464  	11.3092   	55.782352   
 465  	11.3337   	56.357300   
 466  	11.3581   	56.788570   
 467  	11.3825   	56.357300   
 468  	11.4069   	56.357300   
 469  	11.4314   	57.076046   
 470  	11.4558   	56.429203   
 471  	11.4802   	56.141720   
 472  	11.5046   	56.429203   
 473  	11.5291   	56.644897   
 474  	11.5535   	57.076046   
 475  	11.5779   	57.291752   
 476  	11.6023   	57.076046   
 477  	11.6268   	56.572998   
 478  	11.6512   	55.782352   
 479  	11.6756   	56.644897   
 480  	11.7000   	56.788570   
 481  	11.7245   	55.710449   
 482  	11.7489   	55.422974   
 483  	11.7733   	54.991699   
 484  	11.7978   	55.422974   
 485  	11.8222   	55.279171   
 486  	11.8466   	56.069824   
 487  	11.8710   	55.782352   
 488  	11.8955   	55.997925   
 489  	11.9199   	56.141720   
 490  	11.9443   	55.997925   
 491  	11.9687   	55.710449   
 492  	11.9932   	55.997925   
 493  	12.0176   	55.638550   
 494  	12.0420   	55.494877   
 495  	12.0664   	56.429203   
 496  	12.0909   	56.357300   
 497  	12.1153   	55.997925   
 498  	12.1397   	55.782352   
 499  	12.1641   	55.279171   
 500  	12.1886   	55.782352   
 501  	12.2130   	54.991699   
 502  	12.2374   	55.135498   
 503  	12.2618   	55.279171   
 504  	12.2863   	55.494877   
 505  	12.3107   	55.854244   
 506  	12.3351   	56.644897   
 507  	12.3596   	56.141720   
 508  	12.3840   	55.997925   
 509  	12.4084   	55.782352   
 510  	12.4328   	54.919804   
 511  	12.4573   	55.279171   
 512  	12.4817   	55.566769   
 513  	12.5061   	54.632320   
 514  	12.5305   	54.344845   
 515  	12.5550   	54.201050   
 516  	12.5794   	53.769897   
 517  	12.6038   	53.482300   
 518  	12.6282   	53.626099   
 519  	12.6527   	53.410522   
 520  	12.6771   	54.488647   
 521  	12.7015   	54.848026   
 522  	12.7259   	53.482300   
 523  	12.7504   	54.057373   
 524  	12.7748   	54.057373   
 525  	12.7992   	53.841675   
 526  	12.8236   	53.697998   
 527  	12.8481   	53.769897   
 528  	12.8725   	53.554199   
 529  	12.8969   	53.985474   
 530  	12.9213   	54.057373   
 531  	12.9458   	53.913574   
 532  	12.9702   	53.554199   
 533  	12.9946   	52.691772   
 534  	13.0191   	53.697998   
 535  	13.0435   	52.835449   
 536  	13.0679   	52.763550   
 537  	13.0923   	51.326050   
 538  	13.1168   	51.685425   
 539  	13.1412   	51.757324   
 540  	13.1656   	53.338623   
 541  	13.1900   	53.122925   
 542  	13.2145   	52.547974   
 543  	13.2389   	52.619873   
 544  	13.2633   	52.979248   
 545  	13.2877   	51.901123   
 546  	13.3122   	52.332397   
 547  	13.3366   	52.260498   
 548  	13.3610   	52.476074   
 549  	13.3854   	52.763550   
 550  	13.4099   	52.547974   
 551  	13.4343   	52.547974   
 552  	13.4587   	52.979248   
 553  	13.4831   	52.619873   
 554  	13.5076   	53.051147   
 555  	13.5320   	52.619873   
 556  	13.5564   	52.044800   
 557  	13.5808   	52.691772   
 558  	13.6053   	52.691772   
 559  	13.6297   	52.116699   
 560  	13.6541   	52.116699   
 561  	13.6786   	51.901123   
 562  	13.7030   	52.763550   
 563  	13.7274   	53.122925   
 564  	13.7518   	51.973022   
 565  	13.7763   	52.404175   
 566  	13.8007   	52.188599   
 567  	13.8251   	52.547974   
 568  	13.8495   	52.476074   
 569  	13.8740   	53.913574   
 570  	13.8984   	53.194824   
 571  	13.9228   	53.338623   
 572  	13.9472   	54.919804   
 573  	13.9717   	54.488647   
 574  	13.9961   	54.057373   
 575  	14.0205   	54.201050   
 576  	14.0449   	53.194824   
 577  	14.0694   	52.835449   
 578  	14.0938   	52.907349   
 579  	14.1182   	52.691772   
 580  	14.1426   	51.685425   
 581  	14.1671   	51.254272   
 582  	14.1915   	51.254272   
 583  	14.2159   	51.613647   
 584  	14.2404   	51.326050   
 585  	14.2648   	51.613647   
 586  	14.2892   	51.326050   
 587  	14.3136   	52.619873   
 588  	14.3381   	52.691772   
 589  	14.3625   	52.044800   
 590  	14.3869   	52.260498   
 591  	14.4113   	52.691772   
 592  	14.4358   	53.338623   
 593  	14.4602   	51.973022   
 594  	14.4846   	52.044800   
 595  	14.5090   	51.901123   
 596  	14.5335   	53.410522   
 597  	14.5579   	53.410522   
 598  	14.5823   	53.626099   
 599  	14.6067   	54.416748   
 600  	14.6312   	54.632320   
 601  	14.6556   	54.632320   
 602  	14.6800   	54.848026   
 603  	14.7044   	54.129272   
 604  	14.7289   	54.632320   
 605  	14.7533   	53.482300   
 606  	14.7777   	53.338623   
 607  	14.8021   	53.194824   
 608  	14.8266   	53.482300   
 609  	14.8510   	53.266724   
 610  	14.8754   	53.194824   
 611  	14.8999   	53.697998   
 612  	14.9243   	53.841675   
 613  	14.9487   	53.769897   
 614  	14.9731   	54.344845   
 615  	14.9976   	54.057373   
 616  	15.0220   	53.482300   
 617  	15.0464   	52.691772   
 618  	15.0708   	52.691772   
 619  	15.0953   	53.410522   
 620  	15.1197   	53.482300   
 621  	15.1441   	52.763550   
 622  	15.1685   	52.691772   
 623  	15.1930   	52.476074   
