
      	X(nS)     	Ch1(mV)      


 1    	0.0000    	-67.795776  
 2    	0.0449    	-68.514526  
 3    	0.0899    	-68.011414  
 4    	0.1348    	-69.017639  
 5    	0.1798    	-68.083252  
 6    	0.2247    	-68.586365  
 7    	0.2697    	-68.873901  
 8    	0.3146    	-69.233276  
 9    	0.3596    	-69.377014  
 10   	0.4045    	-68.802002  
 11   	0.4494    	-69.089539  
 12   	0.4944    	-68.298889  
 13   	0.5393    	-67.867615  
 14   	0.5843    	-68.442635  
 15   	0.6292    	-69.161377  
 16   	0.6742    	-69.305115  
 17   	0.7191    	-69.017639  
 18   	0.7640    	-69.305115  
 19   	0.8090    	-68.586365  
 20   	0.8539    	-68.802002  
 21   	0.8989    	-69.161377  
 22   	0.9438    	-68.011414  
 23   	0.9888    	-67.220764  
 24   	1.0337    	-67.292664  
 25   	1.0787    	-68.155151  
 26   	1.1236    	-68.945740  
 27   	1.1685    	-68.083252  
 28   	1.2135    	-67.795776  
 29   	1.2584    	-67.148865  
 30   	1.3034    	-67.867615  
 31   	1.3483    	-67.795776  
 32   	1.3933    	-69.017639  
 33   	1.4382    	-69.736389  
 34   	1.4831    	-69.233276  
 35   	1.5281    	-68.226990  
 36   	1.5730    	-68.802002  
 37   	1.6180    	-68.083252  
 38   	1.6629    	-69.089539  
 39   	1.7079    	-69.089539  
 40   	1.7528    	-68.873901  
 41   	1.7978    	-68.586365  
 42   	1.8427    	-68.011414  
 43   	1.8876    	-68.442635  
 44   	1.9326    	-68.298889  
 45   	1.9775    	-69.664490  
 46   	2.0225    	-69.520760  
 47   	2.0674    	-69.161377  
 48   	2.1124    	-68.226990  
 49   	2.1573    	-68.586365  
 50   	2.2022    	-68.945740  
 51   	2.2472    	-69.880127  
 52   	2.2921    	-69.880127  
 53   	2.3371    	-68.873901  
 54   	2.3820    	-69.089539  
 55   	2.4270    	-69.664490  
 56   	2.4719    	-69.520760  
 57   	2.5169    	-68.945740  
 58   	2.5618    	-69.089539  
 59   	2.6067    	-69.089539  
 60   	2.6517    	-68.873901  
 61   	2.6966    	-68.442635  
 62   	2.7416    	-68.730171  
 63   	2.7865    	-69.377014  
 64   	2.8315    	-69.736389  
 65   	2.8764    	-69.592651  
 66   	2.9213    	-69.808296  
 67   	2.9663    	-70.023865  
 68   	3.0112    	-69.448914  
 69   	3.0562    	-69.592651  
 70   	3.1011    	-69.017639  
 71   	3.1461    	-69.233276  
 72   	3.1910    	-68.658264  
 73   	3.2360    	-68.370789  
 74   	3.2809    	-68.298889  
 75   	3.3258    	-69.305115  
 76   	3.3708    	-69.664490  
 77   	3.4157    	-69.448914  
 78   	3.4607    	-70.239502  
 79   	3.5056    	-70.742615  
 80   	3.5506    	-70.239502  
 81   	3.5955    	-70.023865  
 82   	3.6404    	-70.383240  
 83   	3.6854    	-70.095764  
 84   	3.7303    	-70.742615  
 85   	3.7753    	-70.383240  
 86   	3.8202    	-69.808296  
 87   	3.8652    	-69.448914  
 88   	3.9101    	-69.520760  
 89   	3.9551    	-68.586365  
 90   	4.0000    	-68.730171  
 91   	4.0449    	-69.161377  
 92   	4.0899    	-68.586365  
 93   	4.1348    	-69.017639  
 94   	4.1798    	-68.873901  
 95   	4.2247    	-68.586365  
 96   	4.2697    	-68.730171  
 97   	4.3146    	-68.011414  
 98   	4.3596    	-67.580139  
 99   	4.4045    	-68.442635  
 100  	4.4494    	-68.945740  
 101  	4.4944    	-68.658264  
 102  	4.5393    	-68.730171  
 103  	4.5843    	-68.155151  
 104  	4.6292    	-67.867615  
 105  	4.6742    	-68.586365  
 106  	4.7191    	-68.155151  
 107  	4.7640    	-67.652046  
 108  	4.8090    	-68.370789  
 109  	4.8539    	-68.802002  
 110  	4.8989    	-68.945740  
 111  	4.9438    	-68.370789  
 112  	4.9888    	-68.730171  
 113  	5.0337    	-69.161377  
 114  	5.0787    	-68.945740  
 115  	5.1236    	-68.945740  
 116  	5.1685    	-69.233276  
 117  	5.2135    	-69.377014  
 118  	5.2584    	-69.880127  
 119  	5.3034    	-69.736389  
 120  	5.3483    	-69.161377  
 121  	5.3933    	-69.233276  
 122  	5.4382    	-68.442635  
 123  	5.4831    	-68.873901  
 124  	5.5281    	-69.089539  
 125  	5.5730    	-69.664490  
 126  	5.6180    	-69.664490  
 127  	5.6629    	-68.945740  
 128  	5.7079    	-69.592651  
 129  	5.7528    	-69.161377  
 130  	5.7978    	-69.592651  
 131  	5.8427    	-69.305115  
 132  	5.8876    	-68.802002  
 133  	5.9326    	-69.017639  
 134  	5.9775    	-68.945740  
 135  	6.0225    	-69.880127  
 136  	6.0674    	-68.730171  
 137  	6.1124    	-68.945740  
 138  	6.1573    	-68.514526  
 139  	6.2022    	-68.730171  
 140  	6.2472    	-68.442635  
 141  	6.2921    	-67.939514  
 142  	6.3371    	-67.580139  
 143  	6.3820    	-68.370789  
 144  	6.4270    	-68.155151  
 145  	6.4719    	-68.658264  
 146  	6.5169    	-68.514526  
 147  	6.5618    	-67.580139  
 148  	6.6067    	-68.011414  
 149  	6.6517    	-69.089539  
 150  	6.6966    	-69.664490  
 151  	6.7416    	-69.880127  
 152  	6.7865    	-69.808296  
 153  	6.8315    	-69.448914  
 154  	6.8764    	-69.520760  
 155  	6.9213    	-69.305115  
 156  	6.9663    	-69.448914  
 157  	7.0112    	-69.592651  
 158  	7.0562    	-69.305115  
 159  	7.1011    	-69.736389  
 160  	7.1461    	-69.161377  
 161  	7.1910    	-68.442635  
 162  	7.2360    	-69.161377  
 163  	7.2809    	-68.802002  
 164  	7.3258    	-69.664490  
 165  	7.3708    	-68.945740  
 166  	7.4157    	-69.664490  
 167  	7.4607    	-69.089539  
 168  	7.5056    	-69.736389  
 169  	7.5506    	-69.089539  
 170  	7.5955    	-68.730171  
 171  	7.6404    	-69.808296  
 172  	7.6854    	-69.664490  
 173  	7.7303    	-68.945740  
 174  	7.7753    	-68.873901  
 175  	7.8202    	-69.448914  
 176  	7.8652    	-69.233276  
 177  	7.9101    	-68.873901  
 178  	7.9551    	-68.658264  
 179  	8.0000    	-68.945740  
 180  	8.0449    	-67.939514  
 181  	8.0899    	-69.161377  
 182  	8.1348    	-68.586365  
 183  	8.1798    	-68.945740  
 184  	8.2247    	-69.520760  
 185  	8.2697    	-69.520760  
 186  	8.3146    	-69.952026  
 187  	8.3596    	-69.017639  
 188  	8.4045    	-68.945740  
 189  	8.4494    	-69.305115  
 190  	8.4944    	-68.945740  
 191  	8.5393    	-69.017639  
 192  	8.5843    	-69.233276  
 193  	8.6292    	-68.298889  
 194  	8.6742    	-68.514526  
 195  	8.7191    	-67.939514  
 196  	8.7640    	-69.161377  
 197  	8.8090    	-69.377014  
 198  	8.8539    	-69.305115  
 199  	8.8989    	-69.161377  
 200  	8.9438    	-69.161377  
 201  	8.9888    	-68.730171  
 202  	9.0337    	-68.226990  
 203  	9.0787    	-67.795776  
 204  	9.1236    	-68.226990  
 205  	9.1685    	-68.586365  
 206  	9.2135    	-68.370789  
 207  	9.2584    	-67.939514  
 208  	9.3034    	-68.586365  
 209  	9.3483    	-69.089539  
 210  	9.3933    	-68.658264  
 211  	9.4382    	-69.952026  
 212  	9.4831    	-70.167664  
 213  	9.5281    	-69.017639  
 214  	9.5730    	-69.161377  
 215  	9.6180    	-68.658264  
 216  	9.6629    	-68.945740  
 217  	9.7079    	-68.873901  
 218  	9.7528    	-68.586365  
 219  	9.7978    	-68.658264  
 220  	9.8427    	-68.586365  
 221  	9.8876    	-68.442635  
 222  	9.9326    	-69.520760  
 223  	9.9775    	-69.089539  
 224  	10.0225   	-69.161377  
 225  	10.0674   	-69.161377  
 226  	10.1124   	-68.658264  
 227  	10.1573   	-68.298889  
 228  	10.2022   	-68.083252  
 229  	10.2472   	-69.305115  
 230  	10.2921   	-70.455139  
 231  	10.3371   	-69.736389  
 232  	10.3820   	-69.089539  
 233  	10.4270   	-67.795776  
 234  	10.4719   	-69.161377  
 235  	10.5169   	-68.802002  
 236  	10.5618   	-68.586365  
 237  	10.6067   	-68.370789  
 238  	10.6517   	-67.939514  
 239  	10.6966   	-68.298889  
 240  	10.7416   	-69.161377  
 241  	10.7865   	-68.658264  
 242  	10.8315   	-67.723877  
 243  	10.8764   	-68.586365  
 244  	10.9213   	-69.592651  
 245  	10.9663   	-70.239502  
 246  	11.0112   	-68.730171  
 247  	11.0562   	-69.664490  
 248  	11.1011   	-68.945740  
 249  	11.1461   	-69.736389  
 250  	11.1910   	-70.239502  
 251  	11.2360   	-69.017639  
 252  	11.2809   	-69.017639  
 253  	11.3258   	-68.730171  
 254  	11.3708   	-68.802002  
 255  	11.4157   	-68.442635  
 256  	11.4607   	-68.442635  
 257  	11.5056   	-67.939514  
 258  	11.5506   	-68.586365  
 259  	11.5955   	-68.442635  
 260  	11.6404   	-69.592651  
 261  	11.6854   	-69.592651  
 262  	11.7303   	-69.377014  
 263  	11.7753   	-68.802002  
 264  	11.8202   	-68.945740  
 265  	11.8652   	-68.586365  
 266  	11.9101   	-68.370789  
 267  	11.9551   	-67.795776  
 268  	12.0000   	-68.370789  
 269  	12.0449   	-68.370789  
 270  	12.0899   	-68.730171  
 271  	12.1348   	-68.802002  
 272  	12.1798   	-68.514526  
 273  	12.2247   	-67.436401  
 274  	12.2697   	-67.364510  
 275  	12.3146   	-68.442635  
 276  	12.3596   	-69.520760  
 277  	12.4045   	-68.730171  
 278  	12.4494   	-69.377014  
 279  	12.4944   	-69.089539  
 280  	12.5393   	-69.377014  
 281  	12.5843   	-69.448914  
 282  	12.6292   	-68.730171  
 283  	12.6742   	-69.089539  
 284  	12.7191   	-68.370789  
 285  	12.7640   	-69.089539  
 286  	12.8090   	-68.945740  
 287  	12.8539   	-69.017639  
 288  	12.8989   	-68.802002  
 289  	12.9438   	-68.083252  
 290  	12.9888   	-67.580139  
 291  	13.0337   	-68.370789  
 292  	13.0787   	-67.220764  
 293  	13.1236   	-67.939514  
 294  	13.1685   	-68.083252  
 295  	13.2135   	-68.586365  
 296  	13.2584   	-67.939514  
 297  	13.3034   	-67.867615  
 298  	13.3483   	-69.017639  
 299  	13.3933   	-68.298889  
 300  	13.4382   	-68.083252  
 301  	13.4831   	-68.011414  
 302  	13.5281   	-68.442635  
 303  	13.5730   	-68.586365  
 304  	13.6180   	-68.083252  
 305  	13.6629   	-68.514526  
 306  	13.7079   	-68.730171  
 307  	13.7528   	-69.592651  
 308  	13.7978   	-69.736389  
 309  	13.8427   	-69.233276  
 310  	13.8876   	-69.808296  
 311  	13.9326   	-70.239502  
 312  	13.9775   	-69.089539  
 313  	14.0225   	-68.802002  
 314  	14.0674   	-69.736389  
 315  	14.1124   	-69.161377  
 316  	14.1573   	-68.226990  
 317  	14.2022   	-68.514526  
 318  	14.2472   	-69.520760  
 319  	14.2921   	-69.233276  
 320  	14.3371   	-69.305115  
 321  	14.3820   	-69.952026  
 322  	14.4270   	-69.808296  
 323  	14.4719   	-68.658264  
 324  	14.5169   	-68.873901  
 325  	14.5618   	-68.586365  
 326  	14.6067   	-68.011414  
 327  	14.6517   	-67.939514  
 328  	14.6966   	-67.723877  
 329  	14.7416   	-68.873901  
 330  	14.7865   	-68.586365  
 331  	14.8315   	-67.867615  
 332  	14.8764   	-67.723877  
 333  	14.9213   	-68.155151  
 334  	14.9663   	-68.155151  
 335  	15.0112   	-68.226990  
 336  	15.0562   	-67.077026  
 337  	15.1011   	-68.370789  
 338  	15.1461   	-68.083252  
 339  	15.1910   	-67.795776  
 340  	15.2360   	-68.011414  
 341  	15.2809   	-68.226990  
 342  	15.3258   	-69.377014  
 343  	15.3708   	-69.448914  
 344  	15.4157   	-69.305115  
 345  	15.4607   	-68.514526  
 346  	15.5056   	-68.370789  
 347  	15.5506   	-68.370789  
 348  	15.5955   	-68.442635  
 349  	15.6404   	-70.239502  
 350  	15.6854   	-69.305115  
 351  	15.7303   	-69.233276  
 352  	15.7753   	-69.520760  
 353  	15.8202   	-70.455139  
 354  	15.8652   	-70.598885  
 355  	15.9101   	-70.670776  
 356  	15.9551   	-70.527039  
 357  	16.0000   	-69.736389  
 358  	16.0449   	-69.161377  
 359  	16.0899   	-69.161377  
 360  	16.1348   	-69.233276  
 361  	16.1798   	-69.233276  
 362  	16.2247   	-69.089539  
 363  	16.2697   	-69.664490  
 364  	16.3146   	-68.442635  
 365  	16.3596   	-68.873901  
 366  	16.4045   	-69.017639  
 367  	16.4494   	-68.442635  
 368  	16.4944   	-68.011414  
 369  	16.5393   	-68.514526  
 370  	16.5843   	-68.155151  
 371  	16.6292   	-69.161377  
 372  	16.6742   	-68.730171  
 373  	16.7191   	-69.664490  
 374  	16.7640   	-69.017639  
 375  	16.8090   	-69.592651  
 376  	16.8539   	-69.448914  
 377  	16.8989   	-69.664490  
 378  	16.9438   	-69.233276  
 379  	16.9888   	-69.377014  
 380  	17.0337   	-70.023865  
 381  	17.0787   	-68.586365  
 382  	17.1236   	-68.155151  
 383  	17.1685   	-68.730171  
 384  	17.2135   	-69.161377  
 385  	17.2584   	-69.089539  
 386  	17.3034   	-69.017639  
 387  	17.3483   	-68.298889  
 388  	17.3933   	-67.795776  
 389  	17.4382   	-68.658264  
 390  	17.4831   	-68.802002  
 391  	17.5281   	-68.370789  
 392  	17.5730   	-68.226990  
 393  	17.6180   	-69.161377  
 394  	17.6629   	-69.017639  
 395  	17.7079   	-68.658264  
 396  	17.7528   	-68.802002  
 397  	17.7978   	-68.730171  
 398  	17.8427   	-69.089539  
 399  	17.8876   	-68.945740  
 400  	17.9326   	-68.658264  
 401  	17.9775   	-68.155151  
 402  	18.0225   	-69.089539  
 403  	18.0674   	-68.226990  
 404  	18.1124   	-68.298889  
 405  	18.1573   	-67.867615  
 406  	18.2022   	-68.370789  
 407  	18.2472   	-67.652046  
 408  	18.2921   	-67.580139  
 409  	18.3371   	-68.226990  
 410  	18.3820   	-68.658264  
 411  	18.4270   	-69.089539  
 412  	18.4719   	-68.370789  
 413  	18.5169   	-68.945740  
 414  	18.5618   	-67.867615  
 415  	18.6067   	-68.083252  
 416  	18.6517   	-68.298889  
 417  	18.6966   	-68.658264  
 418  	18.7416   	-68.802002  
 419  	18.7865   	-69.161377  
 420  	18.8315   	-67.795776  
 421  	18.8764   	-68.658264  
 422  	18.9213   	-69.161377  
 423  	18.9663   	-68.586365  
 424  	19.0112   	-69.448914  
 425  	19.0562   	-68.226990  
 426  	19.1011   	-67.148865  
 427  	19.1461   	-67.723877  
 428  	19.1910   	-66.861389  
 429  	19.2360   	-68.370789  
 430  	19.2809   	-67.939514  
 431  	19.3258   	-67.220764  
 432  	19.3708   	-67.580139  
 433  	19.4157   	-67.652046  
 434  	19.4607   	-67.867615  
 435  	19.5056   	-68.730171  
 436  	19.5506   	-68.945740  
 437  	19.5955   	-68.226990  
 438  	19.6404   	-67.939514  
 439  	19.6854   	-67.795776  
 440  	19.7303   	-68.802002  
 441  	19.7753   	-68.155151  
 442  	19.8202   	-68.514526  
 443  	19.8652   	-68.226990  
 444  	19.9101   	-68.945740  
 445  	19.9551   	-68.442635  
 446  	20.0000   	-68.730171  
 447  	20.0449   	-68.083252  
 448  	20.0899   	-68.514526  
 449  	20.1348   	-68.802002  
 450  	20.1798   	-69.305115  
 451  	20.2247   	-69.808296  
 452  	20.2697   	-68.730171  
 453  	20.3146   	-69.305115  
 454  	20.3596   	-69.161377  
 455  	20.4045   	-68.730171  
 456  	20.4494   	-68.586365  
 457  	20.4944   	-68.155151  
 458  	20.5393   	-69.305115  
 459  	20.5843   	-69.161377  
 460  	20.6292   	-69.017639  
 461  	20.6742   	-69.017639  
 462  	20.7191   	-69.952026  
 463  	20.7640   	-69.161377  
 464  	20.8090   	-68.873901  
 465  	20.8539   	-68.945740  
 466  	20.8989   	-68.586365  
 467  	20.9438   	-68.155151  
 468  	20.9888   	-68.370789  
 469  	21.0337   	-68.083252  
 470  	21.0787   	-68.514526  
 471  	21.1236   	-68.298889  
 472  	21.1685   	-68.442635  
 473  	21.2135   	-68.226990  
 474  	21.2584   	-69.233276  
 475  	21.3034   	-68.873901  
 476  	21.3483   	-69.017639  
 477  	21.3933   	-68.730171  
 478  	21.4382   	-68.802002  
 479  	21.4831   	-68.514526  
 480  	21.5281   	-69.880127  
 481  	21.5730   	-69.017639  
 482  	21.6180   	-69.233276  
 483  	21.6629   	-69.017639  
 484  	21.7079   	-68.945740  
 485  	21.7528   	-68.155151  
 486  	21.7978   	-67.795776  
 487  	21.8427   	-68.155151  
 488  	21.8876   	-68.011414  
 489  	21.9326   	-67.652046  
 490  	21.9775   	-68.945740  
 491  	22.0225   	-69.089539  
 492  	22.0674   	-68.298889  
 493  	22.1124   	-68.514526  
 494  	22.1573   	-68.514526  
 495  	22.2022   	-67.939514  
 496  	22.2472   	-67.508240  
 497  	22.2921   	-69.089539  
 498  	22.3371   	-68.083252  
 499  	22.3820   	-67.508240  
 500  	22.4270   	-67.723877  
 501  	22.4719   	-68.873901  
 502  	22.5169   	-68.155151  
 503  	22.5618   	-69.233276  
 504  	22.6067   	-68.873901  
 505  	22.6517   	-69.592651  
 506  	22.6966   	-68.873901  
 507  	22.7416   	-69.736389  
 508  	22.7865   	-68.730171  
 509  	22.8315   	-68.586365  
 510  	22.8764   	-68.155151  
 511  	22.9213   	-68.514526  
 512  	22.9663   	-68.514526  
 513  	23.0112   	-68.370789  
 514  	23.0562   	-68.298889  
 515  	23.1011   	-68.083252  
 516  	23.1461   	-68.083252  
 517  	23.1910   	-68.802002  
 518  	23.2360   	-68.370789  
 519  	23.2809   	-68.873901  
 520  	23.3258   	-68.298889  
 521  	23.3708   	-68.514526  
 522  	23.4157   	-67.508240  
 523  	23.4607   	-67.867615  
 524  	23.5056   	-68.298889  
 525  	23.5506   	-68.083252  
 526  	23.5955   	-67.580139  
 527  	23.6404   	-68.083252  
 528  	23.6854   	-67.795776  
 529  	23.7303   	-67.867615  
 530  	23.7753   	-67.939514  
 531  	23.8202   	-68.586365  
 532  	23.8652   	-67.795776  
 533  	23.9101   	-67.292664  
 534  	23.9551   	-67.867615  
 535  	24.0000   	-68.083252  
 536  	24.0449   	-67.148865  
 537  	24.0899   	-68.298889  
 538  	24.1348   	-67.723877  
 539  	24.1798   	-67.867615  
 540  	24.2247   	-68.083252  
 541  	24.2697   	-66.789490  
 542  	24.3146   	-67.436401  
 543  	24.3596   	-68.298889  
 544  	24.4045   	-68.083252  
 545  	24.4494   	-67.795776  
 546  	24.4944   	-68.011414  
 547  	24.5393   	-67.652046  
 548  	24.5843   	-67.292664  
 549  	24.6292   	-67.220764  
 550  	24.6742   	-66.861389  
 551  	24.7191   	-68.011414  
 552  	24.7640   	-66.430115  
 553  	24.8090   	-66.717651  
 554  	24.8539   	-66.214539  
 555  	24.8989   	-65.495789  
 556  	24.9438   	-65.351990  
 557  	24.9888   	-64.777039  
 558  	25.0337   	-63.411377  
 559  	25.0787   	-61.830139  
 560  	25.1236   	-60.823914  
 561  	25.1685   	-58.092651  
 562  	25.2135   	-57.517639  
 563  	25.2584   	-56.942627  
 564  	25.3034   	-56.655151  
 565  	25.3483   	-56.439514  
 566  	25.3933   	-55.289490  
 567  	25.4382   	-53.205139  
 568  	25.4831   	-46.664490  
 569  	25.5281   	-22.802004  
 570  	25.5730   	0.197937    
 571  	25.6180   	15.435487   
 572  	25.6629   	28.732363   
 573  	25.7079   	36.926086   
 574  	25.7528   	44.329285   
 575  	25.7978   	48.497990   
 576  	25.8427   	51.229191   
 577  	25.8876   	54.607361   
 578  	25.9326   	56.404236   
 579  	25.9775   	57.338566   
 580  	26.0225   	58.991764   
 581  	26.0674   	60.141788   
 582  	26.1124   	61.507389   
 583  	26.1573   	62.369812   
 584  	26.2022   	62.872986   
 585  	26.2472   	63.304264   
 586  	26.2921   	64.166687   
 587  	26.3371   	64.382385   
 588  	26.3820   	64.669861   
 589  	26.4270   	64.885437   
 590  	26.4719   	65.029236   
 591  	26.5169   	64.166687   
 592  	26.5618   	65.029236   
 593  	26.6067   	65.963562   
 594  	26.6517   	65.532410   
 595  	26.6966   	65.101135   
 596  	26.7416   	65.173035   
 597  	26.7865   	65.747986   
 598  	26.8315   	65.316711   
 599  	26.8764   	66.682312   
 600  	26.9213   	66.682312   
 601  	26.9663   	66.682312   
 602  	27.0112   	67.041687   
 603  	27.0562   	67.472961   
 604  	27.1011   	68.622986   
 605  	27.1461   	68.766785   
 606  	27.1910   	68.694885   
 607  	27.2360   	67.976135   
 608  	27.2809   	67.472961   
 609  	27.3258   	68.838562   
 610  	27.3708   	69.341736   
 611  	27.4157   	68.694885   
 612  	27.4607   	69.269844   
 613  	27.5056   	69.701111   
 614  	27.5506   	69.126160   
 615  	27.5955   	69.844910   
 616  	27.6404   	68.910461   
 617  	27.6854   	68.407410   
 618  	27.7303   	68.479187   
 619  	27.7753   	69.773010   
 620  	27.8202   	69.413635   
 621  	27.8652   	70.491760   
 622  	27.9101   	70.923035   
 623  	27.9551   	71.066711   
