
      	X(nS)     	Ch1(mV)      


 1    	0.0000    	-82.929436  
 2    	0.0449    	-83.576294  
 3    	0.0899    	-83.216919  
 4    	0.1348    	-83.648186  
 5    	0.1798    	-84.582520  
 6    	0.2247    	-84.510674  
 7    	0.2697    	-83.935669  
 8    	0.3146    	-83.863770  
 9    	0.3596    	-83.216919  
 10   	0.4045    	-83.935669  
 11   	0.4494    	-83.648186  
 12   	0.4944    	-83.432549  
 13   	0.5393    	-82.498161  
 14   	0.5843    	-81.995049  
 15   	0.6292    	-82.138786  
 16   	0.6742    	-81.491936  
 17   	0.7191    	-83.216919  
 18   	0.7640    	-82.282524  
 19   	0.8090    	-83.432549  
 20   	0.8539    	-83.145020  
 21   	0.8989    	-82.785645  
 22   	0.9438    	-83.145020  
 23   	0.9888    	-83.648186  
 24   	1.0337    	-83.432549  
 25   	1.0787    	-83.073174  
 26   	1.1236    	-83.001274  
 27   	1.1685    	-81.995049  
 28   	1.2135    	-82.498161  
 29   	1.2584    	-82.929436  
 30   	1.3034    	-82.426270  
 31   	1.3483    	-82.210686  
 32   	1.3933    	-82.426270  
 33   	1.4382    	-82.426270  
 34   	1.4831    	-83.216919  
 35   	1.5281    	-84.151299  
 36   	1.5730    	-83.648186  
 37   	1.6180    	-83.863770  
 38   	1.6629    	-83.360649  
 39   	1.7079    	-83.145020  
 40   	1.7528    	-83.360649  
 41   	1.7978    	-83.360649  
 42   	1.8427    	-83.935669  
 43   	1.8876    	-84.726311  
 44   	1.9326    	-83.720024  
 45   	1.9775    	-84.654419  
 46   	2.0225    	-84.295044  
 47   	2.0674    	-82.857544  
 48   	2.1124    	-83.576294  
 49   	2.1573    	-83.073174  
 50   	2.2022    	-83.360649  
 51   	2.2472    	-83.360649  
 52   	2.2921    	-83.791924  
 53   	2.3371    	-84.438774  
 54   	2.3820    	-84.366936  
 55   	2.4270    	-83.001274  
 56   	2.4719    	-83.360649  
 57   	2.5169    	-83.360649  
 58   	2.5618    	-83.145020  
 59   	2.6067    	-82.785645  
 60   	2.6517    	-83.360649  
 61   	2.6966    	-82.929436  
 62   	2.7416    	-83.504395  
 63   	2.7865    	-83.863770  
 64   	2.8315    	-83.648186  
 65   	2.8764    	-84.295044  
 66   	2.9213    	-83.648186  
 67   	2.9663    	-83.001274  
 68   	3.0112    	-83.001274  
 69   	3.0562    	-83.504395  
 70   	3.1011    	-83.360649  
 71   	3.1461    	-83.576294  
 72   	3.1910    	-84.510674  
 73   	3.2360    	-85.301270  
 74   	3.2809    	-84.223145  
 75   	3.3258    	-83.935669  
 76   	3.3708    	-84.654419  
 77   	3.4157    	-83.432549  
 78   	3.4607    	-82.785645  
 79   	3.5056    	-83.432549  
 80   	3.5506    	-83.360649  
 81   	3.5955    	-83.360649  
 82   	3.6404    	-83.216919  
 83   	3.6854    	-83.145020  
 84   	3.7303    	-84.079399  
 85   	3.7753    	-84.151299  
 86   	3.8202    	-83.863770  
 87   	3.8652    	-84.007561  
 88   	3.9101    	-83.216919  
 89   	3.9551    	-81.851311  
 90   	4.0000    	-82.210686  
 91   	4.0449    	-82.785645  
 92   	4.0899    	-83.360649  
 93   	4.1348    	-83.791924  
 94   	4.1798    	-84.151299  
 95   	4.2247    	-83.216919  
 96   	4.2697    	-83.360649  
 97   	4.3146    	-84.151299  
 98   	4.3596    	-84.151299  
 99   	4.4045    	-83.504395  
 100  	4.4494    	-83.791924  
 101  	4.4944    	-84.295044  
 102  	4.5393    	-83.504395  
 103  	4.5843    	-83.863770  
 104  	4.6292    	-83.576294  
 105  	4.6742    	-83.001274  
 106  	4.7191    	-84.079399  
 107  	4.7640    	-82.785645  
 108  	4.8090    	-82.426270  
 109  	4.8539    	-82.066895  
 110  	4.8989    	-82.857544  
 111  	4.9438    	-83.001274  
 112  	4.9888    	-83.145020  
 113  	5.0337    	-83.791924  
 114  	5.0787    	-84.366936  
 115  	5.1236    	-85.085693  
 116  	5.1685    	-84.654419  
 117  	5.2135    	-84.438774  
 118  	5.2584    	-85.301270  
 119  	5.3034    	-85.445068  
 120  	5.3483    	-85.013794  
 121  	5.3933    	-84.726311  
 122  	5.4382    	-83.432549  
 123  	5.4831    	-83.432549  
 124  	5.5281    	-83.576294  
 125  	5.5730    	-82.857544  
 126  	5.6180    	-83.360649  
 127  	5.6629    	-83.073174  
 128  	5.7079    	-83.648186  
 129  	5.7528    	-84.582520  
 130  	5.7978    	-84.079399  
 131  	5.8427    	-85.085693  
 132  	5.8876    	-85.157524  
 133  	5.9326    	-84.079399  
 134  	5.9775    	-83.720024  
 135  	6.0225    	-83.504395  
 136  	6.0674    	-83.576294  
 137  	6.1124    	-84.007561  
 138  	6.1573    	-84.223145  
 139  	6.2022    	-84.510674  
 140  	6.2472    	-84.510674  
 141  	6.2921    	-84.726311  
 142  	6.3371    	-84.582520  
 143  	6.3820    	-84.510674  
 144  	6.4270    	-84.654419  
 145  	6.4719    	-85.085693  
 146  	6.5169    	-83.863770  
 147  	6.5618    	-84.007561  
 148  	6.6067    	-83.791924  
 149  	6.6517    	-83.648186  
 150  	6.6966    	-83.863770  
 151  	6.7416    	-84.223145  
 152  	6.7865    	-84.007561  
 153  	6.8315    	-84.366936  
 154  	6.8764    	-84.366936  
 155  	6.9213    	-83.791924  
 156  	6.9663    	-83.935669  
 157  	7.0112    	-82.929436  
 158  	7.0562    	-83.504395  
 159  	7.1011    	-84.438774  
 160  	7.1461    	-84.151299  
 161  	7.1910    	-83.935669  
 162  	7.2360    	-84.726311  
 163  	7.2809    	-83.288811  
 164  	7.3258    	-84.007561  
 165  	7.3708    	-83.791924  
 166  	7.4157    	-83.432549  
 167  	7.4607    	-83.145020  
 168  	7.5056    	-82.857544  
 169  	7.5506    	-83.648186  
 170  	7.5955    	-83.576294  
 171  	7.6404    	-83.935669  
 172  	7.6854    	-84.798149  
 173  	7.7303    	-83.216919  
 174  	7.7753    	-82.570061  
 175  	7.8202    	-83.216919  
 176  	7.8652    	-83.935669  
 177  	7.9101    	-83.935669  
 178  	7.9551    	-83.863770  
 179  	8.0000    	-83.504395  
 180  	8.0449    	-83.504395  
 181  	8.0899    	-84.079399  
 182  	8.1348    	-83.863770  
 183  	8.1798    	-83.288811  
 184  	8.2247    	-82.929436  
 185  	8.2697    	-83.432549  
 186  	8.3146    	-82.713799  
 187  	8.3596    	-82.713799  
 188  	8.4045    	-83.360649  
 189  	8.4494    	-83.576294  
 190  	8.4944    	-82.929436  
 191  	8.5393    	-83.504395  
 192  	8.5843    	-83.360649  
 193  	8.6292    	-83.791924  
 194  	8.6742    	-83.432549  
 195  	8.7191    	-83.288811  
 196  	8.7640    	-83.216919  
 197  	8.8090    	-83.216919  
 198  	8.8539    	-82.570061  
 199  	8.8989    	-83.001274  
 200  	8.9438    	-82.282524  
 201  	8.9888    	-82.641899  
 202  	9.0337    	-82.570061  
 203  	9.0787    	-82.570061  
 204  	9.1236    	-83.216919  
 205  	9.1685    	-83.935669  
 206  	9.2135    	-84.870049  
 207  	9.2584    	-84.726311  
 208  	9.3034    	-84.438774  
 209  	9.3483    	-85.229424  
 210  	9.3933    	-84.726311  
 211  	9.4382    	-84.151299  
 212  	9.4831    	-83.288811  
 213  	9.5281    	-83.001274  
 214  	9.5730    	-83.145020  
 215  	9.6180    	-83.935669  
 216  	9.6629    	-84.223145  
 217  	9.7079    	-84.366936  
 218  	9.7528    	-84.223145  
 219  	9.7978    	-84.007561  
 220  	9.8427    	-82.857544  
 221  	9.8876    	-83.288811  
 222  	9.9326    	-83.288811  
 223  	9.9775    	-83.863770  
 224  	10.0225   	-83.576294  
 225  	10.0674   	-82.857544  
 226  	10.1124   	-83.001274  
 227  	10.1573   	-82.641899  
 228  	10.2022   	-83.576294  
 229  	10.2472   	-83.001274  
 230  	10.2921   	-81.923149  
 231  	10.3371   	-82.641899  
 232  	10.3820   	-83.073174  
 233  	10.4270   	-82.857544  
 234  	10.4719   	-81.923149  
 235  	10.5169   	-81.779411  
 236  	10.5618   	-82.138786  
 237  	10.6067   	-82.641899  
 238  	10.6517   	-83.216919  
 239  	10.6966   	-82.498161  
 240  	10.7416   	-82.713799  
 241  	10.7865   	-83.360649  
 242  	10.8315   	-82.857544  
 243  	10.8764   	-82.282524  
 244  	10.9213   	-81.923149  
 245  	10.9663   	-82.498161  
 246  	11.0112   	-82.641899  
 247  	11.0562   	-82.713799  
 248  	11.1011   	-82.641899  
 249  	11.1461   	-83.073174  
 250  	11.1910   	-82.498161  
 251  	11.2360   	-82.570061  
 252  	11.2809   	-82.066895  
 253  	11.3258   	-82.210686  
 254  	11.3708   	-83.648186  
 255  	11.4157   	-82.929436  
 256  	11.4607   	-82.426270  
 257  	11.5056   	-82.498161  
 258  	11.5506   	-82.570061  
 259  	11.5955   	-83.073174  
 260  	11.6404   	-83.935669  
 261  	11.6854   	-84.295044  
 262  	11.7303   	-84.079399  
 263  	11.7753   	-84.438774  
 264  	11.8202   	-83.648186  
 265  	11.8652   	-83.360649  
 266  	11.9101   	-83.720024  
 267  	11.9551   	-83.935669  
 268  	12.0000   	-83.791924  
 269  	12.0449   	-83.073174  
 270  	12.0899   	-83.216919  
 271  	12.1348   	-83.288811  
 272  	12.1798   	-82.929436  
 273  	12.2247   	-83.504395  
 274  	12.2697   	-83.145020  
 275  	12.3146   	-82.713799  
 276  	12.3596   	-83.791924  
 277  	12.4045   	-82.713799  
 278  	12.4494   	-83.863770  
 279  	12.4944   	-83.648186  
 280  	12.5393   	-83.073174  
 281  	12.5843   	-83.360649  
 282  	12.6292   	-82.641899  
 283  	12.6742   	-83.145020  
 284  	12.7191   	-83.360649  
 285  	12.7640   	-82.857544  
 286  	12.8090   	-83.145020  
 287  	12.8539   	-82.857544  
 288  	12.8989   	-83.791924  
 289  	12.9438   	-84.007561  
 290  	12.9888   	-83.432549  
 291  	13.0337   	-83.288811  
 292  	13.0787   	-82.785645  
 293  	13.1236   	-82.426270  
 294  	13.1685   	-82.138786  
 295  	13.2135   	-82.785645  
 296  	13.2584   	-82.929436  
 297  	13.3034   	-82.498161  
 298  	13.3483   	-82.857544  
 299  	13.3933   	-82.857544  
 300  	13.4382   	-81.779411  
 301  	13.4831   	-82.354424  
 302  	13.5281   	-83.073174  
 303  	13.5730   	-82.282524  
 304  	13.6180   	-82.498161  
 305  	13.6629   	-83.360649  
 306  	13.7079   	-83.288811  
 307  	13.7528   	-83.145020  
 308  	13.7978   	-83.360649  
 309  	13.8427   	-83.576294  
 310  	13.8876   	-82.713799  
 311  	13.9326   	-82.641899  
 312  	13.9775   	-82.785645  
 313  	14.0225   	-82.929436  
 314  	14.0674   	-82.138786  
 315  	14.1124   	-83.073174  
 316  	14.1573   	-82.857544  
 317  	14.2022   	-82.354424  
 318  	14.2472   	-82.713799  
 319  	14.2921   	-81.995049  
 320  	14.3371   	-81.635674  
 321  	14.3820   	-82.138786  
 322  	14.4270   	-82.282524  
 323  	14.4719   	-81.779411  
 324  	14.5169   	-83.288811  
 325  	14.5618   	-83.288811  
 326  	14.6067   	-82.066895  
 327  	14.6517   	-81.923149  
 328  	14.6966   	-81.276299  
 329  	14.7416   	-81.851311  
 330  	14.7865   	-82.641899  
 331  	14.8315   	-82.641899  
 332  	14.8764   	-81.635674  
 333  	14.9213   	-81.923149  
 334  	14.9663   	-82.426270  
 335  	15.0112   	-82.354424  
 336  	15.0562   	-83.504395  
 337  	15.1011   	-83.432549  
 338  	15.1461   	-83.145020  
 339  	15.1910   	-83.791924  
 340  	15.2360   	-83.288811  
 341  	15.2809   	-83.720024  
 342  	15.3258   	-84.510674  
 343  	15.3708   	-84.798149  
 344  	15.4157   	-84.438774  
 345  	15.4607   	-84.510674  
 346  	15.5056   	-83.935669  
 347  	15.5506   	-84.007561  
 348  	15.5955   	-82.929436  
 349  	15.6404   	-82.570061  
 350  	15.6854   	-83.288811  
 351  	15.7303   	-82.713799  
 352  	15.7753   	-82.929436  
 353  	15.8202   	-82.857544  
 354  	15.8652   	-83.145020  
 355  	15.9101   	-83.432549  
 356  	15.9551   	-82.713799  
 357  	16.0000   	-83.648186  
 358  	16.0449   	-84.007561  
 359  	16.0899   	-84.295044  
 360  	16.1348   	-84.798149  
 361  	16.1798   	-84.582520  
 362  	16.2247   	-82.857544  
 363  	16.2697   	-83.001274  
 364  	16.3146   	-83.001274  
 365  	16.3596   	-83.432549  
 366  	16.4045   	-83.576294  
 367  	16.4494   	-83.720024  
 368  	16.4944   	-83.648186  
 369  	16.5393   	-83.791924  
 370  	16.5843   	-83.720024  
 371  	16.6292   	-83.504395  
 372  	16.6742   	-83.863770  
 373  	16.7191   	-82.929436  
 374  	16.7640   	-84.438774  
 375  	16.8090   	-83.145020  
 376  	16.8539   	-83.073174  
 377  	16.8989   	-82.713799  
 378  	16.9438   	-82.138786  
 379  	16.9888   	-82.570061  
 380  	17.0337   	-83.360649  
 381  	17.0787   	-83.360649  
 382  	17.1236   	-84.007561  
 383  	17.1685   	-82.857544  
 384  	17.2135   	-83.073174  
 385  	17.2584   	-83.001274  
 386  	17.3034   	-82.929436  
 387  	17.3483   	-82.641899  
 388  	17.3933   	-82.426270  
 389  	17.4382   	-83.360649  
 390  	17.4831   	-82.713799  
 391  	17.5281   	-83.648186  
 392  	17.5730   	-83.935669  
 393  	17.6180   	-84.223145  
 394  	17.6629   	-83.935669  
 395  	17.7079   	-84.079399  
 396  	17.7528   	-83.432549  
 397  	17.7978   	-83.288811  
 398  	17.8427   	-83.216919  
 399  	17.8876   	-83.863770  
 400  	17.9326   	-83.073174  
 401  	17.9775   	-82.785645  
 402  	18.0225   	-82.282524  
 403  	18.0674   	-82.426270  
 404  	18.1124   	-82.282524  
 405  	18.1573   	-82.426270  
 406  	18.2022   	-83.073174  
 407  	18.2472   	-82.713799  
 408  	18.2921   	-82.282524  
 409  	18.3371   	-82.857544  
 410  	18.3820   	-83.001274  
 411  	18.4270   	-83.720024  
 412  	18.4719   	-84.007561  
 413  	18.5169   	-84.366936  
 414  	18.5618   	-84.295044  
 415  	18.6067   	-83.648186  
 416  	18.6517   	-83.648186  
 417  	18.6966   	-82.785645  
 418  	18.7416   	-82.713799  
 419  	18.7865   	-82.570061  
 420  	18.8315   	-82.713799  
 421  	18.8764   	-82.713799  
 422  	18.9213   	-82.210686  
 423  	18.9663   	-81.779411  
 424  	19.0112   	-83.216919  
 425  	19.0562   	-82.138786  
 426  	19.1011   	-82.785645  
 427  	19.1461   	-81.635674  
 428  	19.1910   	-81.491936  
 429  	19.2360   	-81.491936  
 430  	19.2809   	-81.923149  
 431  	19.3258   	-81.851311  
 432  	19.3708   	-82.138786  
 433  	19.4157   	-82.641899  
 434  	19.4607   	-82.498161  
 435  	19.5056   	-82.570061  
 436  	19.5506   	-82.570061  
 437  	19.5955   	-82.857544  
 438  	19.6404   	-82.857544  
 439  	19.6854   	-83.216919  
 440  	19.7303   	-82.929436  
 441  	19.7753   	-83.576294  
 442  	19.8202   	-82.785645  
 443  	19.8652   	-83.216919  
 444  	19.9101   	-82.570061  
 445  	19.9551   	-83.216919  
 446  	20.0000   	-82.641899  
 447  	20.0449   	-82.785645  
 448  	20.0899   	-83.935669  
 449  	20.1348   	-83.720024  
 450  	20.1798   	-83.001274  
 451  	20.2247   	-82.929436  
 452  	20.2697   	-83.504395  
 453  	20.3146   	-84.726311  
 454  	20.3596   	-84.295044  
 455  	20.4045   	-83.576294  
 456  	20.4494   	-83.863770  
 457  	20.4944   	-83.648186  
 458  	20.5393   	-84.007561  
 459  	20.5843   	-84.295044  
 460  	20.6292   	-83.360649  
 461  	20.6742   	-83.863770  
 462  	20.7191   	-84.366936  
 463  	20.7640   	-82.929436  
 464  	20.8090   	-83.073174  
 465  	20.8539   	-82.426270  
 466  	20.8989   	-82.426270  
 467  	20.9438   	-82.570061  
 468  	20.9888   	-83.001274  
 469  	21.0337   	-83.288811  
 470  	21.0787   	-83.360649  
 471  	21.1236   	-84.007561  
 472  	21.1685   	-83.648186  
 473  	21.2135   	-82.282524  
 474  	21.2584   	-81.851311  
 475  	21.3034   	-82.929436  
 476  	21.3483   	-83.360649  
 477  	21.3933   	-82.498161  
 478  	21.4382   	-82.785645  
 479  	21.4831   	-83.216919  
 480  	21.5281   	-83.504395  
 481  	21.5730   	-83.432549  
 482  	21.6180   	-82.570061  
 483  	21.6629   	-83.216919  
 484  	21.7079   	-83.720024  
 485  	21.7528   	-83.720024  
 486  	21.7978   	-83.720024  
 487  	21.8427   	-84.079399  
 488  	21.8876   	-83.720024  
 489  	21.9326   	-82.713799  
 490  	21.9775   	-83.360649  
 491  	22.0225   	-83.935669  
 492  	22.0674   	-83.648186  
 493  	22.1124   	-82.354424  
 494  	22.1573   	-83.073174  
 495  	22.2022   	-83.145020  
 496  	22.2472   	-83.576294  
 497  	22.2921   	-82.641899  
 498  	22.3371   	-82.857544  
 499  	22.3820   	-83.216919  
 500  	22.4270   	-82.929436  
 501  	22.4719   	-83.216919  
 502  	22.5169   	-83.001274  
 503  	22.5618   	-82.498161  
 504  	22.6067   	-83.720024  
 505  	22.6517   	-83.863770  
 506  	22.6966   	-83.504395  
 507  	22.7416   	-83.720024  
 508  	22.7865   	-84.007561  
 509  	22.8315   	-83.863770  
 510  	22.8764   	-82.570061  
 511  	22.9213   	-82.785645  
 512  	22.9663   	-83.576294  
 513  	23.0112   	-83.001274  
 514  	23.0562   	-83.001274  
 515  	23.1011   	-83.288811  
 516  	23.1461   	-83.145020  
 517  	23.1910   	-83.216919  
 518  	23.2360   	-83.791924  
 519  	23.2809   	-83.576294  
 520  	23.3258   	-82.929436  
 521  	23.3708   	-83.001274  
 522  	23.4157   	-82.641899  
 523  	23.4607   	-83.001274  
 524  	23.5056   	-82.498161  
 525  	23.5506   	-83.216919  
 526  	23.5955   	-83.791924  
 527  	23.6404   	-83.504395  
 528  	23.6854   	-82.498161  
 529  	23.7303   	-82.785645  
 530  	23.7753   	-82.641899  
 531  	23.8202   	-82.426270  
 532  	23.8652   	-82.641899  
 533  	23.9101   	-83.360649  
 534  	23.9551   	-83.145020  
 535  	24.0000   	-84.151299  
 536  	24.0449   	-83.432549  
 537  	24.0899   	-83.863770  
 538  	24.1348   	-83.576294  
 539  	24.1798   	-83.360649  
 540  	24.2247   	-83.073174  
 541  	24.2697   	-83.576294  
 542  	24.3146   	-82.210686  
 543  	24.3596   	-82.210686  
 544  	24.4045   	-82.138786  
 545  	24.4494   	-82.210686  
 546  	24.4944   	-82.570061  
 547  	24.5393   	-81.995049  
 548  	24.5843   	-81.132561  
 549  	24.6292   	-81.563774  
 550  	24.6742   	-81.707520  
 551  	24.7191   	-80.701286  
 552  	24.7640   	-80.701286  
 553  	24.8090   	-80.701286  
 554  	24.8539   	-80.198174  
 555  	24.8989   	-80.270012  
 556  	24.9438   	-79.551262  
 557  	24.9888   	-79.191887  
 558  	25.0337   	-77.826286  
 559  	25.0787   	-76.676262  
 560  	25.1236   	-74.663811  
 561  	25.1685   	-72.507561  
 562  	25.2135   	-70.710686  
 563  	25.2584   	-70.063782  
 564  	25.3034   	-70.351311  
 565  	25.3483   	-69.416931  
 566  	25.3933   	-69.704407  
 567  	25.4382   	-68.626282  
 568  	25.4831   	-62.876274  
 569  	25.5281   	-38.223145  
 570  	25.5730   	-15.223143  
 571  	25.6180   	2.026855    
 572  	25.6629   	13.526855   
 573  	25.7079   	23.445557   
 574  	25.7528   	30.058102   
 575  	25.7978   	35.233028   
 576  	25.8427   	36.814327   
 577  	25.8876   	39.904903   
 578  	25.9326   	41.342403   
 579  	25.9775   	42.851803   
 580  	26.0225   	44.864376   
 581  	26.0674   	45.511227   
 582  	26.1124   	47.667477   
 583  	26.1573   	47.595581   
 584  	26.2022   	47.739376   
 585  	26.2472   	47.595581   
 586  	26.2921   	48.529903   
 587  	26.3371   	48.098751   
 588  	26.3820   	48.745605   
 589  	26.4270   	48.314331   
 590  	26.4719   	48.961178   
 591  	26.5169   	49.033081   
 592  	26.5618   	50.326778   
 593  	26.6067   	51.548702   
 594  	26.6517   	51.404903   
 595  	26.6966   	50.542480   
 596  	26.7416   	50.470577   
 597  	26.7865   	51.261230   
 598  	26.8315   	51.979977   
 599  	26.8764   	51.764278   
 600  	26.9213   	51.836178   
 601  	26.9663   	52.267452   
 602  	27.0112   	52.411255   
 603  	27.0562   	52.123653   
 604  	27.1011   	53.848751   
 605  	27.1461   	53.561153   
 606  	27.1910   	52.914303   
 607  	27.2360   	52.483028   
 608  	27.2809   	53.776852   
 609  	27.3258   	54.567501   
 610  	27.3708   	55.573723   
 611  	27.4157   	55.645622   
 612  	27.4607   	54.854973   
 613  	27.5056   	55.717407   
 614  	27.5506   	55.286247   
 615  	27.5955   	55.214348   
 616  	27.6404   	54.495602   
 617  	27.6854   	54.495602   
 618  	27.7303   	54.639278   
 619  	27.7753   	56.148682   
 620  	27.8202   	55.214348   
 621  	27.8652   	55.429932   
 622  	27.9101   	56.723747   
 623  	27.9551   	56.508057   
